TITLE,DL121 27.5C Lit
DATA TYPE,
ORIGIN,JASCO
OWNER,
DATE,23/05/01
TIME,12:43:06
SPECTROMETER/DATA SYSTEM,
LOCALE,1033
RESOLUTION,
DELTAX,-0.1
XUNITS,NANOMETERS
YUNITS,CD [mdeg]
Y2UNITS,HT [V]
FIRSTX,  250.0000
LASTX,  190.0000
NPOINTS,     601
FIRSTY,    -0.40946
MAXY,    45.79888
MINY,   -45.46146
XYDATA
250.0000,-0.409463,285.765
249.9000,-0.416055,285.807
249.8000,-0.430823,285.859
249.7000,-0.479709,285.91
249.6000,-0.525845,285.954
249.5000,-0.551196,285.996
249.4000,-0.593231,286.033
249.3000,-0.614294,286.078
249.2000,-0.625302,286.134
249.1000,-0.600983,286.192
249.0000,-0.572357,286.246
248.9000,-0.604611,286.295
248.8000,-0.662424,286.345
248.7000,-0.686136,286.402
248.6000,-0.696683,286.462
248.5000,-0.698849,286.518
248.4000,-0.690634,286.569
248.3000,-0.679294,286.627
248.2000,-0.679507,286.683
248.1000,-0.669852,286.733
248.0000,-0.640573,286.792
247.9000,-0.636908,286.854
247.8000,-0.654721,286.914
247.7000,-0.670871,286.977
247.6000,-0.65827,285.834
247.5000,-0.665091,284.31
247.4000,-0.683768,282.814
247.3000,-0.707999,281.341
247.2000,-0.710062,280.624
247.1000,-0.676215,280.67
247.0000,-0.688007,280.741
246.9000,-0.768518,280.813
246.8000,-0.843057,280.888
246.7000,-0.9147,280.962
246.6000,-1.00532,281.031
246.5000,-1.07091,281.112
246.4000,-1.14543,281.196
246.3000,-1.23931,281.273
246.2000,-1.25208,281.353
246.1000,-1.22883,281.435
246.0000,-1.22491,281.617
245.9000,-1.28944,283.348
245.8000,-1.32895,285.001
245.7000,-1.38058,286.641
245.6000,-1.42431,288.261
245.5000,-1.49358,288.641
245.4000,-1.58905,288.731
245.3000,-1.63611,288.812
245.2000,-1.67151,288.893
245.1000,-1.68439,288.981
245.0000,-1.70771,289.077
244.9000,-1.74947,289.177
244.8000,-1.79256,289.269
244.7000,-1.82563,289.361
244.6000,-1.80827,289.457
244.5000,-1.86593,289.552
244.4000,-1.96532,289.65
244.3000,-2.04383,289.752
244.2000,-2.07404,289.854
244.1000,-2.13718,289.953
244.0000,-2.20102,290.049
243.9000,-2.2467,290.148
243.8000,-2.2659,290.256
243.7000,-2.28503,290.369
243.6000,-2.29182,290.484
243.5000,-2.27718,290.598
243.4000,-2.30927,290.708
243.3000,-2.28079,290.818
243.2000,-2.24614,290.931
243.1000,-2.29694,291.048
243.0000,-2.38564,291.171
242.9000,-2.54316,291.293
242.8000,-2.64511,291.418
242.7000,-2.73518,291.544
242.6000,-2.82614,291.673
242.5000,-2.96784,291.805
242.4000,-3.08707,291.944
242.3000,-3.19221,292.085
242.2000,-3.30685,292.225
242.1000,-3.40758,292.365
242.0000,-3.52241,292.508
241.9000,-3.66718,292.658
241.8000,-3.8372,292.811
241.7000,-4.00462,292.965
241.6000,-4.20949,293.121
241.5000,-4.38113,293.277
241.4000,-4.48614,293.436
241.3000,-4.56217,293.604
241.2000,-4.6111,293.777
241.1000,-4.62714,293.951
241.0000,-4.64318,294.122
240.9000,-4.66195,294.294
240.8000,-4.65132,294.472
240.7000,-4.62581,294.658
240.6000,-4.62771,294.855
240.5000,-4.64187,295.057
240.4000,-4.72596,295.258
240.3000,-4.80298,295.457
240.2000,-4.86472,295.655
240.1000,-4.83546,295.861
240.0000,-4.81223,296.078
239.9000,-4.81999,296.299
239.8000,-4.82557,296.525
239.7000,-4.83672,296.747
239.6000,-4.86721,296.969
239.5000,-4.9499,297.194
239.4000,-5.06888,297.429
239.3000,-5.22331,297.674
239.2000,-5.34778,297.924
239.1000,-5.46891,298.177
239.0000,-5.58248,298.425
238.9000,-5.68343,298.676
238.8000,-5.78162,298.932
238.7000,-5.79795,299.198
238.6000,-5.82707,299.473
238.5000,-5.94131,299.753
238.4000,-6.11386,300.034
238.3000,-6.26064,300.318
238.2000,-6.39244,300.607
238.1000,-6.54291,300.903
238.0000,-6.71975,301.206
237.9000,-6.88418,301.515
237.8000,-7.03365,301.828
237.7000,-7.17684,302.146
237.6000,-7.32726,302.469
237.5000,-7.48601,302.794
237.4000,-7.66985,303.124
237.3000,-7.87512,303.463
237.2000,-8.10327,303.81
237.1000,-8.33906,304.164
237.0000,-8.60404,304.521
236.9000,-8.86372,304.877
236.8000,-9.07161,305.238
236.7000,-9.28665,305.608
236.6000,-9.48572,305.989
236.5000,-9.69197,306.373
236.4000,-9.89618,306.767
236.3000,-10.0887,307.17
236.2000,-10.2936,307.578
236.1000,-10.5329,307.989
236.0000,-10.8219,308.406
235.9000,-11.0532,308.83
235.8000,-11.251,309.263
235.7000,-11.4357,309.701
235.6000,-11.5557,310.142
235.5000,-11.675,310.586
235.4000,-11.8012,311.034
235.3000,-11.9479,311.488
235.2000,-12.1559,311.955
235.1000,-12.3486,312.431
235.0000,-12.5238,312.911
234.9000,-12.6882,313.391
234.8000,-12.8353,313.882
234.7000,-12.9612,314.381
234.6000,-13.1339,314.884
234.5000,-13.3231,315.397
234.4000,-13.4291,315.916
234.3000,-13.5118,316.441
234.2000,-13.6251,316.977
234.1000,-13.8077,317.521
234.0000,-14.0164,318.074
233.9000,-14.2742,318.629
233.8000,-14.5772,319.184
233.7000,-14.889,319.746
233.6000,-15.0911,320.329
233.5000,-15.2676,320.921
233.4000,-15.4924,321.515
233.3000,-15.7127,322.111
233.2000,-15.9942,322.711
233.1000,-16.2268,323.321
233.0000,-16.4486,323.931
232.9000,-16.6251,324.547
232.8000,-16.8664,325.163
232.7000,-17.1148,325.782
232.6000,-17.3457,326.402
232.5000,-17.5794,327.021
232.4000,-17.8013,327.641
232.3000,-18.0479,328.271
232.2000,-18.2631,328.911
232.1000,-18.4943,329.561
232.0000,-18.727,330.21
231.9000,-18.9592,330.855
231.8000,-19.1529,331.502
231.7000,-19.3243,332.153
231.6000,-19.5427,332.815
231.5000,-19.7666,333.477
231.4000,-20.0807,334.133
231.3000,-20.3818,334.792
231.2000,-20.6024,335.451
231.1000,-20.7392,336.12
231.0000,-20.9438,336.791
230.9000,-21.2266,337.463
230.8000,-21.5273,338.131
230.7000,-21.8,338.798
230.6000,-21.9648,339.455
230.5000,-21.9,335.772
230.4000,-21.4076,331.828
230.3000,-20.6689,328.339
230.2000,-19.8623,324.863
230.1000,-19.1685,324.077
230.0000,-18.8142,324.704
229.9000,-18.6634,325.37
229.8000,-18.6955,326.035
229.7000,-18.7762,326.706
229.6000,-18.9262,327.377
229.5000,-19.0561,328.045
229.4000,-19.231,328.707
229.3000,-19.4921,329.366
229.2000,-19.7236,330.025
229.1000,-19.9353,330.69
229.0000,-20.1648,331.355
228.9000,-20.5744,332.618
228.8000,-21.3373,338.702
228.7000,-22.4487,343.677
228.6000,-23.7446,348.471
228.5000,-25.11,352.879
228.4000,-26.1995,353.998
228.3000,-27.0354,354.64
228.2000,-27.7186,355.266
228.1000,-28.1675,355.891
228.0000,-28.5835,356.504
227.9000,-29.0096,357.115
227.8000,-29.3973,357.729
227.7000,-29.7362,358.346
227.6000,-30.0389,358.965
227.5000,-30.2867,359.578
227.4000,-30.5988,360.182
227.3000,-30.9523,360.783
227.2000,-31.2248,361.387
227.1000,-31.4232,361.991
227.0000,-31.6163,362.591
226.9000,-31.8405,363.19
226.8000,-32.1577,363.786
226.7000,-32.5089,364.38
226.6000,-32.7982,364.975
226.5000,-32.9924,365.578
226.4000,-33.2015,366.184
226.3000,-33.3351,366.795
226.2000,-33.5143,367.403
226.1000,-33.796,368.002
226.0000,-34.0381,368.594
225.9000,-34.302,369.178
225.8000,-34.6904,369.762
225.7000,-34.9289,370.352
225.6000,-35.1095,370.943
225.5000,-35.3041,371.528
225.4000,-35.5919,372.108
225.3000,-35.9236,372.685
225.2000,-36.2034,373.266
225.1000,-36.4029,373.848
225.0000,-36.6657,374.426
224.9000,-36.9052,374.997
224.8000,-37.1804,375.561
224.7000,-37.4188,376.123
224.6000,-37.794,376.686
224.5000,-38.2172,377.249
224.4000,-38.5053,377.819
224.3000,-38.8583,378.39
224.2000,-39.0503,378.965
224.1000,-39.157,379.537
224.0000,-39.3561,380.112
223.9000,-39.6204,380.689
223.8000,-39.8518,381.265
223.7000,-39.9649,381.839
223.6000,-40.0499,382.407
223.5000,-40.2131,382.97
223.4000,-40.3953,383.537
223.3000,-40.5045,384.109
223.2000,-40.6796,384.678
223.1000,-40.9437,385.243
223.0000,-41.1876,385.809
222.9000,-41.3401,386.376
222.8000,-41.3563,386.944
222.7000,-41.4634,387.507
222.6000,-41.4532,388.077
222.5000,-41.5897,388.645
222.4000,-41.8281,389.211
222.3000,-42.0532,389.77
222.2000,-42.2488,390.327
222.1000,-42.4934,390.886
222.0000,-42.7194,391.456
221.9000,-42.9486,392.028
221.8000,-43.0469,392.602
221.7000,-43.0881,393.173
221.6000,-43.1003,393.749
221.5000,-43.0715,394.331
221.4000,-43.0966,394.911
221.3000,-43.0965,395.489
221.2000,-43.2192,396.062
221.1000,-43.4201,396.628
221.0000,-43.7011,397.195
220.9000,-43.9542,397.759
220.8000,-44.0934,398.323
220.7000,-44.2992,398.886
220.6000,-44.4467,399.456
220.5000,-44.4215,400.035
220.4000,-44.3472,400.619
220.3000,-44.3048,401.205
220.2000,-44.3565,401.787
220.1000,-44.4321,402.372
220.0000,-44.5404,402.952
219.9000,-44.6892,403.528
219.8000,-44.7597,404.109
219.7000,-44.8451,404.689
219.6000,-44.9632,405.265
219.5000,-45.0359,405.843
219.4000,-45.0106,406.431
219.3000,-44.8664,407.025
219.2000,-44.8355,407.619
219.1000,-44.7551,408.221
219.0000,-44.6908,408.824
218.9000,-44.6612,409.428
218.8000,-44.7397,410.027
218.7000,-44.9355,410.615
218.6000,-45.0911,411.196
218.5000,-45.169,411.788
218.4000,-45.1162,412.384
218.3000,-45.1823,412.978
218.2000,-45.3783,413.567
218.1000,-45.4615,414.163
218.0000,-45.3805,414.773
217.9000,-45.2443,415.39
217.8000,-45.1561,416.004
217.7000,-45.1827,416.618
217.6000,-45.3099,417.236
217.5000,-45.4276,417.86
217.4000,-45.441,418.488
217.3000,-45.3422,419.119
217.2000,-45.1826,419.753
217.1000,-44.9463,420.398
217.0000,-44.6696,421.059
216.9000,-44.3574,421.728
216.8000,-44.1132,422.396
216.7000,-44.0784,423.065
216.6000,-43.9437,423.754
216.5000,-43.7556,424.452
216.4000,-43.7364,425.147
216.3000,-43.8394,425.843
216.2000,-43.87,426.548
216.1000,-43.7947,427.269
216.0000,-43.577,428.001
215.9000,-43.3033,428.746
215.8000,-43.1538,429.494
215.7000,-43.0095,430.251
215.6000,-42.915,431.009
215.5000,-42.9466,431.767
215.4000,-42.9218,432.529
215.3000,-42.8626,433.305
215.2000,-43.04,434.087
215.1000,-43.189,434.887
215.0000,-43.305,435.694
214.9000,-43.3307,436.507
214.8000,-43.4762,437.318
214.7000,-43.5144,438.148
214.6000,-43.4725,438.999
214.5000,-43.3003,439.868
214.4000,-43.1874,440.746
214.3000,-43.4045,441.619
214.2000,-43.4454,442.503
214.1000,-43.147,443.413
214.0000,-43.2092,444.334
213.9000,-43.1609,445.28
213.8000,-43.0012,446.247
213.7000,-42.8117,447.229
213.6000,-42.6743,448.219
213.5000,-42.3682,448.937
213.4000,-41.2752,440.267
213.3000,-39.492,422.374
213.2000,-37.3886,400.189
213.1000,-34.9379,379.06
213.0000,-32.6922,376.371
212.9000,-31.1769,377.275
212.8000,-30.2927,378.418
212.7000,-29.5861,379.596
212.6000,-28.9396,380.794
212.5000,-28.6973,381.997
212.4000,-28.4887,383.205
212.3000,-28.1426,384.426
212.2000,-28.304,385.646
212.1000,-28.5322,386.89
212.0000,-28.6206,388.161
211.9000,-28.5384,389.451
211.8000,-28.773,392.791
211.7000,-29.9932,407.643
211.6000,-31.9966,429.706
211.5000,-34.3956,455.154
211.4000,-36.7598,472.936
211.3000,-38.6539,475.742
211.2000,-39.916,477.195
211.1000,-40.7369,478.576
211.0000,-41.3382,479.971
210.9000,-41.4812,481.403
210.8000,-41.4306,482.864
210.7000,-41.4863,484.349
210.6000,-41.6433,485.851
210.5000,-41.462,487.389
210.4000,-41.6283,488.939
210.3000,-42.032,490.508
210.2000,-42.3587,492.109
210.1000,-42.6733,493.738
210.0000,-42.682,495.405
209.9000,-42.2288,497.125
209.8000,-41.7384,498.885
209.7000,-41.5106,500.667
209.6000,-41.4259,502.478
209.5000,-41.503,504.313
209.4000,-41.3718,506.186
209.3000,-41.2781,508.09
209.2000,-41.2741,510.021
209.1000,-41.3761,511.979
209.0000,-41.3734,513.973
208.9000,-41.0955,516.01
208.8000,-40.6071,518.091
208.7000,-40.2769,520.199
208.6000,-40.1806,522.331
208.5000,-39.9668,524.507
208.4000,-39.8601,526.71
208.3000,-39.7522,528.95
208.2000,-39.6306,531.224
208.1000,-39.275,533.535
208.0000,-38.8424,535.884
207.9000,-38.3153,538.276
207.8000,-38.1841,540.701
207.7000,-37.9961,543.163
207.6000,-37.6853,545.673
207.5000,-37.6351,548.215
207.4000,-37.1084,550.819
207.3000,-36.6098,553.469
207.2000,-36.747,556.145
207.1000,-37,558.863
207.0000,-36.9818,561.627
206.9000,-36.7984,564.436
206.8000,-36.5702,567.291
206.7000,-36.0654,570.208
206.6000,-35.8642,573.152
206.5000,-35.8662,576.138
206.4000,-35.9025,579.181
206.3000,-35.6165,582.284
206.2000,-34.7467,585.447
206.1000,-33.9134,588.647
206.0000,-33.4984,591.875
205.9000,-33.3729,595.146
205.8000,-33.6272,598.448
205.7000,-33.3972,601.804
205.6000,-33.5414,605.188
205.5000,-32.8592,608.641
205.4000,-32.2337,612.134
205.3000,-31.601,615.67
205.2000,-31.2881,619.246
205.1000,-30.5127,622.872
205.0000,-29.0749,626.557
204.9000,-27.8622,630.282
204.8000,-26.376,634.054
204.7000,-25.0114,637.857
204.6000,-23.9612,641.703
204.5000,-22.7659,645.598
204.4000,-22.0691,649.528
204.3000,-21.3486,653.499
204.2000,-19.7867,657.525
204.1000,-18.203,661.591
204.0000,-15.9927,665.708
203.9000,-13.5772,669.855
203.8000,-12.7567,673.971
203.7000,-11.5444,678.13
203.6000,-10.3992,682.315
203.5000,-10.0239,686.488
203.4000,-10.4175,690.654
203.3000,-10.4736,694.839
203.2000,-9.90192,699.05
203.1000,-9.6003,703.246
203.0000,-9.75606,707.432
202.9000,-11.0693,711.563
202.8000,-12.4644,715.675
202.7000,-10.8602,719.85
202.6000,-8.75359,724.034
202.5000,-5.47659,728.248
202.4000,-4.21955,732.387
202.3000,-5.92432,736.39
202.2000,-8.4365,740.369
202.1000,-7.32068,744.439
202.0000,-9.46182,748.358
201.9000,-6.61058,752.392
201.8000,-2.6842,756.406
201.7000,-0.253372,760.341
201.6000,2.3933,764.264
201.5000,2.57136,768.044
201.4000,1.15444,771.714
201.3000,-5.03519,775.146
201.2000,-8.52467,778.602
201.1000,-13.0034,781.97
201.0000,-19.2591,785.212
200.9000,-20.9841,788.553
200.8000,-22.2832,791.804
200.7000,-25.8043,794.898
200.6000,-27.2621,797.983
200.5000,-27.2179,801.013
200.4000,-25.5445,804.002
200.3000,-20.5552,807.057
200.2000,-18.1334,809.949
200.1000,-15.3865,812.758
200.0000,-12.2289,815.489
199.9000,-9.37567,818.1
199.8000,-11.5284,820.512
199.7000,-9.59441,822.966
199.6000,-5.53079,825.348
199.5000,-2.3051,827.578
199.4000,1.4619,829.802
199.3000,10.7722,832.212
199.2000,10.2544,832.875
199.1000,11.3377,830.261
199.0000,13.7449,833.096
198.9000,18.924,839.932
198.8000,18.5641,846.538
198.7000,19.2703,853.056
198.6000,19.6054,847.802
198.5000,18.6816,821.898
198.4000,17.3532,817.633
198.3000,15.1653,824.936
198.2000,12.1343,832.997
198.1000,13.3668,841.173
198.0000,11.0602,849.246
197.9000,9.80419,857.37
197.8000,12.43,865.555
197.7000,15.104,873.642
197.6000,11.5962,881.347
197.5000,8.94839,891.446
197.4000,9.43892,904.208
197.3000,12.8294,908.325
197.2000,12.8339,911.206
197.1000,9.61618,913.922
197.0000,4.37922,917.314
196.9000,0.0820007,940.419
196.8000,5.28988,972.564
196.7000,7.98983,979.207
196.6000,9.05896,980.146
196.5000,17.0378,980.884
196.4000,21.0725,978.779
196.3000,27.3264,950.713
196.2000,30.0783,906.751
196.1000,30.1393,855.376
196.0000,28.4289,800.475
195.9000,28.9609,743.913
195.8000,30.4813,687.917
195.7000,27.1882,660.203
195.6000,24.3698,657.433
195.5000,25.7926,658.453
195.4000,27.1995,659.853
195.3000,29.8129,661.453
195.2000,30.2467,662.426
195.1000,19.4169,662.067
195.0000,11.3918,660.789
194.9000,8.37332,658.118
194.8000,5.71785,655.412
194.7000,6.13448,662.356
194.6000,3.35576,694.958
194.5000,1.99541,739.649
194.4000,5.97558,790.314
194.3000,10.5948,843.833
194.2000,11.5212,898.691
194.1000,10.5539,946.442
194.0000,9.25179,960.264
193.9000,10.322,958.013
193.8000,14.9021,954.565
193.7000,19.3052,950.923
193.6000,10.945,946.735
193.5000,7.06943,943.824
193.4000,10.5752,941.484
193.3000,11.612,940.796
193.2000,9.36273,941.395
193.1000,10.892,941.484
193.0000,14.8381,941.829
192.9000,24.9032,942.732
192.8000,31.8617,943.345
192.7000,33.5117,943.232
192.6000,33.1993,943.277
192.5000,33.9109,943.142
192.4000,35.3426,943.315
192.3000,38.0629,943.659
192.2000,42.5896,943.694
192.1000,40.3386,943.372
192.0000,35.8068,942.924
191.9000,40.2946,942.413
191.8000,44.7937,942.105
191.7000,45.7989,941.547
191.6000,45.0361,940.637
191.5000,36.1567,939.464
191.4000,23.1335,938.292
191.3000,10.1695,936.94
191.2000,-4.95229,934.927
191.1000,-12.8488,933.123
191.0000,-15.2199,931.692
190.9000,-15.569,930.477
190.8000,-16.7119,929.43
190.7000,-17.6349,928.099
190.6000,-19.3892,926.597
190.5000,-21.3727,925.474
190.4000,-18.7231,924.275
190.3000,-11.3916,923.468
190.2000,-7.75645,922.134
190.1000,-2.48813,920.783
190.0000,2.1526,919.5

##### Extended Information
[Comments]
Sample name,DL121 27.5C Lit
Comment
User,JM
Division
Company,UT Southwestern Medical Center at Dallas

[Detailed Information]
Creation date,5/1/2023 12:43 PM

Data array type,Linear data array * 2
Horizontal axis,Wavelength [nm]
Vertical axis(1),CD [mdeg]
Vertical axis(2),HT [V]
Start,250 nm
End,190 nm
Data interval,0.1 nm
Data points,601     

[Measurement Information]
Instrument name,Jasco CD
Model name,J-815
Serial No.,B064061168

Accessory,CDF-426S
Accessory S/N,A00861183
  Temperature,27.49 C
  Control sonsor,Holder
  Monitor sensor,Holder
  Start Mode,Keep target temperature +/-0.10 deg C while 5 seconds
  Cell length,10 mm

Measurement date,5/1/2023 12:43 PM

Photometric mode,CD, HT
Measure range,250 - 190 nm
Data pitch,0.1 nm
Sensitivity,Standard
D.I.T.,1 sec
Bandwidth,1.00 nm
Start mode,Immediately
Scanning speed,100 nm/min
Baseline correction,None
Shutter control,Manual
CD detector,PMT
PMT voltage,Auto
No. of cycle,3/3

Concentration,0.7 (w/v)%
Solvent,50mM nap04 ph 6.5 100mM NaF

