TITLE,DL121 15C Lit melt post scan 2
DATA TYPE,
ORIGIN,JASCO
OWNER,
DATE,23/05/01
TIME,17:56:15
SPECTROMETER/DATA SYSTEM,
LOCALE,1033
RESOLUTION,
DELTAX,-0.1
XUNITS,NANOMETERS
YUNITS,CD [mdeg]
Y2UNITS,HT [V]
FIRSTX,  250.0000
LASTX,  190.0000
NPOINTS,     601
FIRSTY,    -0.43719
MAXY,    58.70053
MINY,   -46.58578
XYDATA
250.0000,-0.437195,291.892
249.9000,-0.482248,291.941
249.8000,-0.508478,291.997
249.7000,-0.504016,292.051
249.6000,-0.485434,292.105
249.5000,-0.483801,292.164
249.4000,-0.473468,292.221
249.3000,-0.423441,292.285
249.2000,-0.364618,292.349
249.1000,-0.35105,292.406
249.0000,-0.362802,292.46
248.9000,-0.376889,292.521
248.8000,-0.405164,292.583
248.7000,-0.418326,292.643
248.6000,-0.480389,292.701
248.5000,-0.527933,292.76
248.4000,-0.54483,292.819
248.3000,-0.525415,292.884
248.2000,-0.514197,292.948
248.1000,-0.518231,293.007
248.0000,-0.558258,293.066
247.9000,-0.596954,293.126
247.8000,-0.587201,293.188
247.7000,-0.563019,293.255
247.6000,-0.589444,293.322
247.5000,-0.659973,293.387
247.4000,-0.689355,293.454
247.3000,-0.686655,293.523
247.2000,-0.725543,293.591
247.1000,-0.781659,293.661
247.0000,-0.846005,293.733
246.9000,-0.821985,293.811
246.8000,-0.906256,293.283
246.7000,-1.04205,289.941
246.6000,-1.1416,287.13
246.5000,-1.1763,284.397
246.4000,-1.1785,281.986
246.3000,-1.16786,281.789
246.2000,-1.1714,281.874
246.1000,-1.18867,281.973
246.0000,-1.21905,282.069
245.9000,-1.20584,282.165
245.8000,-1.1745,282.257
245.7000,-1.17077,282.344
245.6000,-1.21464,282.431
245.5000,-1.22432,282.522
245.4000,-1.21471,282.618
245.3000,-1.20881,282.716
245.2000,-1.24864,282.808
245.1000,-1.16719,284.743
245.0000,-1.12078,288.013
244.9000,-1.11677,290.946
244.8000,-1.18274,293.863
244.7000,-1.23325,295.732
244.6000,-1.26999,295.92
244.5000,-1.29827,296.017
244.4000,-1.36151,296.105
244.3000,-1.42102,296.198
244.2000,-1.49469,296.3
244.1000,-1.52296,296.414
244.0000,-1.5485,296.529
243.9000,-1.545,296.644
243.8000,-1.53739,296.759
243.7000,-1.54005,296.876
243.6000,-1.53531,296.995
243.5000,-1.58367,297.12
243.4000,-1.60903,297.255
243.3000,-1.6439,297.384
243.2000,-1.68975,297.506
243.1000,-1.71807,297.626
243.0000,-1.79559,297.748
242.9000,-1.90404,297.879
242.8000,-2.02321,298.018
242.7000,-2.11232,298.166
242.6000,-2.21768,298.308
242.5000,-2.30987,298.448
242.4000,-2.41781,298.59
242.3000,-2.47574,298.74
242.2000,-2.5076,298.892
242.1000,-2.59571,299.044
242.0000,-2.65444,299.198
241.9000,-2.73556,299.353
241.8000,-2.81606,299.506
241.7000,-2.94956,299.655
241.6000,-3.01946,299.811
241.5000,-3.04171,299.975
241.4000,-3.05358,300.147
241.3000,-3.00674,300.321
241.2000,-2.95569,300.497
241.1000,-2.92456,300.673
241.0000,-2.89417,300.852
240.9000,-2.88911,301.035
240.8000,-2.91079,301.221
240.7000,-2.9632,301.409
240.6000,-3.05374,301.599
240.5000,-3.15814,301.793
240.4000,-3.24427,301.992
240.3000,-3.37748,302.197
240.2000,-3.45265,302.409
240.1000,-3.4879,302.625
240.0000,-3.51499,302.849
239.9000,-3.60274,303.081
239.8000,-3.71199,303.317
239.7000,-3.82922,303.556
239.6000,-3.97936,303.797
239.5000,-4.10983,304.041
239.4000,-4.24791,304.286
239.3000,-4.33193,304.542
239.2000,-4.38026,304.805
239.1000,-4.41757,305.073
239.0000,-4.49967,305.341
238.9000,-4.53673,305.614
238.8000,-4.58888,305.887
238.7000,-4.6487,306.163
238.6000,-4.68005,306.447
238.5000,-4.73659,306.742
238.4000,-4.79581,307.043
238.3000,-4.83712,307.347
238.2000,-4.90497,307.648
238.1000,-4.99479,307.952
238.0000,-5.10237,308.262
237.9000,-5.20707,308.576
237.8000,-5.3047,308.896
237.7000,-5.35941,309.223
237.6000,-5.4214,309.555
237.5000,-5.47494,309.889
237.4000,-5.47497,310.231
237.3000,-5.49629,310.581
237.2000,-5.57242,310.935
237.1000,-5.65468,311.3
237.0000,-5.72994,311.668
236.9000,-5.80091,312.04
236.8000,-5.84677,312.416
236.7000,-5.99524,312.793
236.6000,-6.12723,313.18
236.5000,-6.22219,313.576
236.4000,-6.28666,313.985
236.3000,-6.39664,314.405
236.2000,-6.50887,314.833
236.1000,-6.5766,315.262
236.0000,-6.67885,315.694
235.9000,-6.82491,316.131
235.8000,-6.97876,316.58
235.7000,-7.09851,317.036
235.6000,-7.23569,317.496
235.5000,-7.33477,317.963
235.4000,-7.43317,318.436
235.3000,-7.53802,318.914
235.2000,-7.66849,319.399
235.1000,-7.85692,319.892
235.0000,-7.95782,320.398
234.9000,-8.07923,320.911
234.8000,-8.2482,321.43
234.7000,-8.40303,321.948
234.6000,-8.54759,322.472
234.5000,-8.73672,323.006
234.4000,-8.95885,323.549
234.3000,-9.12981,324.104
234.2000,-9.28386,324.669
234.1000,-9.48864,325.236
234.0000,-9.64192,325.817
233.9000,-9.79401,326.409
233.8000,-9.93892,327.007
233.7000,-10.0911,327.61
233.6000,-10.2267,328.223
233.5000,-10.2906,328.843
233.4000,-10.3161,329.472
233.3000,-10.3589,330.106
233.2000,-10.431,330.744
233.1000,-10.584,331.389
233.0000,-10.7285,332.042
232.9000,-10.8364,332.698
232.8000,-10.9699,333.356
232.7000,-11.1288,334.021
232.6000,-11.2705,334.691
232.5000,-11.4119,335.365
232.4000,-11.6106,336.036
232.3000,-11.8353,336.709
232.2000,-12.0598,337.39
232.1000,-12.2632,338.083
232.0000,-12.5201,338.78
231.9000,-12.8247,339.479
231.8000,-13.041,340.182
231.7000,-13.2799,340.886
231.6000,-13.5191,341.598
231.5000,-13.6429,342.319
231.4000,-13.736,343.041
231.3000,-13.8852,343.767
231.2000,-14.0308,344.496
231.1000,-14.2611,345.229
231.0000,-14.5171,345.96
230.9000,-14.7375,346.701
230.8000,-14.9732,347.444
230.7000,-15.1943,348.195
230.6000,-15.3902,348.945
230.5000,-15.5796,349.699
230.4000,-15.7047,350.458
230.3000,-15.7462,351.217
230.2000,-15.8817,351.974
230.1000,-16.136,352.727
230.0000,-16.3608,353.484
229.9000,-16.5757,354.243
229.8000,-16.8454,355.008
229.7000,-16.8519,354.011
229.6000,-16.469,343.904
229.5000,-15.8299,331.922
229.4000,-14.9827,325.72
229.3000,-14.1813,321.5
229.2000,-13.6813,321.893
229.1000,-13.4793,322.685
229.0000,-13.3491,323.494
228.9000,-13.3525,324.303
228.8000,-13.3683,325.109
228.7000,-13.5126,325.907
228.6000,-13.6897,326.71
228.5000,-13.8693,327.52
228.4000,-14.0051,328.332
228.3000,-14.2124,329.136
228.2000,-14.5302,329.929
228.1000,-14.7208,330.719
228.0000,-15.2619,335.986
227.9000,-16.1211,349.983
227.8000,-17.1653,360.958
227.7000,-18.2441,368.431
227.6000,-19.3223,372.292
227.5000,-20.1275,373.17
227.4000,-20.7835,373.914
227.3000,-21.3968,374.652
227.2000,-21.9427,375.391
227.1000,-22.4262,376.134
227.0000,-22.7756,376.881
226.9000,-22.9771,377.624
226.8000,-23.1521,378.36
226.7000,-23.3857,379.093
226.6000,-23.6155,379.832
226.5000,-23.8569,380.577
226.4000,-24.2149,381.316
226.3000,-24.5168,382.06
226.2000,-24.7827,382.807
226.1000,-25.0803,383.553
226.0000,-25.3678,384.297
225.9000,-25.5568,385.044
225.8000,-25.7141,385.789
225.7000,-25.9019,386.525
225.6000,-26.0869,387.255
225.5000,-26.384,387.972
225.4000,-26.7246,388.689
225.3000,-27.0962,389.406
225.2000,-27.5146,390.12
225.1000,-27.8402,390.836
225.0000,-28.0249,391.555
224.9000,-28.2231,392.272
224.8000,-28.3641,392.994
224.7000,-28.622,393.717
224.6000,-28.8996,394.438
224.5000,-29.1025,395.152
224.4000,-29.2123,395.87
224.3000,-29.2885,396.588
224.2000,-29.4217,397.308
224.1000,-29.6825,398.033
224.0000,-29.8077,398.763
223.9000,-29.8319,399.501
223.8000,-29.8896,400.24
223.7000,-30.0672,400.965
223.6000,-30.3353,401.693
223.5000,-30.5282,402.429
223.4000,-30.7872,403.163
223.3000,-31.1418,403.888
223.2000,-31.4895,404.608
223.1000,-31.8512,405.322
223.0000,-31.9673,406.039
222.9000,-32.0437,406.759
222.8000,-32.2007,407.474
222.7000,-32.5047,408.187
222.6000,-32.827,408.902
222.5000,-33.2816,409.605
222.4000,-33.6306,410.306
222.3000,-34.0906,411.007
222.2000,-34.422,411.716
222.1000,-34.7591,412.427
222.0000,-34.9663,413.141
221.9000,-35.2538,413.851
221.8000,-35.6617,414.556
221.7000,-36.1197,415.267
221.6000,-36.3586,415.989
221.5000,-36.4486,416.715
221.4000,-36.5341,417.441
221.3000,-36.8299,418.157
221.2000,-37.1776,418.876
221.1000,-37.5236,419.597
221.0000,-37.9261,420.315
220.9000,-38.2212,421.039
220.8000,-38.4699,421.764
220.7000,-38.8703,422.489
220.6000,-39.0993,423.221
220.5000,-39.2805,423.955
220.4000,-39.2216,424.701
220.3000,-39.1848,425.447
220.2000,-39.0924,426.194
220.1000,-38.9633,426.942
220.0000,-38.9948,427.681
219.9000,-39.0876,428.416
219.8000,-39.3373,429.145
219.7000,-39.5678,429.877
219.6000,-39.8563,430.608
219.5000,-40.0364,431.339
219.4000,-40.3666,432.076
219.3000,-40.6675,432.812
219.2000,-40.9606,433.553
219.1000,-41.0045,434.307
219.0000,-40.9098,435.061
218.9000,-41.1813,435.8
218.8000,-41.564,436.543
218.7000,-41.973,437.295
218.6000,-42.3882,438.051
218.5000,-42.854,438.811
218.4000,-43.1412,439.579
218.3000,-43.2836,440.357
218.2000,-43.5045,441.139
218.1000,-43.7562,441.932
218.0000,-43.9224,442.74
217.9000,-44.038,443.558
217.8000,-44.0818,444.378
217.7000,-44.1022,445.195
217.6000,-44.1342,446.018
217.5000,-44.079,446.852
217.4000,-44.1615,447.695
217.3000,-44.1323,448.552
217.2000,-43.929,449.416
217.1000,-43.7899,450.273
217.0000,-43.5357,451.14
216.9000,-43.282,452.012
216.8000,-42.9396,452.894
216.7000,-42.9,453.782
216.6000,-42.8804,454.68
216.5000,-42.6954,455.594
216.4000,-42.6808,456.506
216.3000,-42.6866,457.429
216.2000,-42.7287,458.363
216.1000,-42.77,459.316
216.0000,-42.6863,460.284
215.9000,-42.6114,461.256
215.8000,-42.4027,462.239
215.7000,-42.3084,463.223
215.6000,-42.6986,464.202
215.5000,-43.0671,465.202
215.4000,-43.2786,466.221
215.3000,-43.5385,467.243
215.2000,-43.9685,468.268
215.1000,-44.4294,469.306
215.0000,-44.6661,470.364
214.9000,-44.7644,471.442
214.8000,-45.0716,472.52
214.7000,-45.2237,473.612
214.6000,-45.3788,474.715
214.5000,-45.2473,475.848
214.4000,-45.2315,476.99
214.3000,-45.2805,478.149
214.2000,-45.4989,479.322
214.1000,-45.9033,480.508
214.0000,-46.0144,481.719
213.9000,-45.889,482.953
213.8000,-45.9657,484.197
213.7000,-46.0528,485.461
213.6000,-46.309,486.748
213.5000,-46.4176,488.069
213.4000,-46.2659,489.409
213.3000,-46.265,490.757
213.2000,-46.3015,492.123
213.1000,-46.3421,493.513
213.0000,-46.3492,494.924
212.9000,-46.3785,496.359
212.8000,-46.5858,497.806
212.7000,-46.4747,499.276
212.6000,-45.9965,496.01
212.5000,-44.5973,479.78
212.4000,-42.5816,456.82
212.3000,-40.3082,430.665
212.2000,-37.7641,402.858
212.1000,-35.0489,384.432
212.0000,-32.7427,384.047
211.9000,-30.915,385.576
211.8000,-29.3519,387.28
211.7000,-28.5342,389.007
211.6000,-27.9655,390.752
211.5000,-27.4538,392.518
211.4000,-26.9331,394.307
211.3000,-26.3432,396.112
211.2000,-26.0079,397.918
211.1000,-25.4241,399.756
211.0000,-25.2444,401.699
210.9000,-25.4749,413.062
210.8000,-26.7834,435.549
210.7000,-29.0278,463.281
210.6000,-31.5879,493.608
210.5000,-34.1118,525.307
210.4000,-36.4851,538.637
210.3000,-38.2171,541.516
210.2000,-39.1741,543.636
210.1000,-40.1285,545.704
210.0000,-40.5711,547.808
209.9000,-40.5989,549.965
209.8000,-41.0086,552.144
209.7000,-41.5379,554.358
209.6000,-42.2139,556.624
209.5000,-43.0306,558.931
209.4000,-43.9206,561.279
209.3000,-44.835,563.664
209.2000,-45.7486,566.086
209.1000,-46.1075,568.574
209.0000,-46.289,571.111
208.9000,-46.0936,573.714
208.8000,-45.8348,576.36
208.7000,-45.1306,579.064
208.6000,-44.6199,581.8
208.5000,-44.505,584.578
208.4000,-44.4752,587.411
208.3000,-44.5836,590.295
208.2000,-44.8103,593.228
208.1000,-44.6165,596.234
208.0000,-43.5484,599.31
207.9000,-42.024,602.436
207.8000,-40.6668,605.608
207.7000,-39.9301,608.812
207.6000,-39.4056,612.068
207.5000,-39.2203,615.374
207.4000,-38.3225,618.763
207.3000,-37.9242,622.18
207.2000,-37.5245,625.645
207.1000,-36.9638,629.167
207.0000,-37.0818,632.719
206.9000,-37.7028,636.302
206.8000,-37.8377,639.954
206.7000,-38.0179,643.652
206.6000,-38.173,647.396
206.5000,-38.1213,651.189
206.4000,-37.2423,655.059
206.3000,-37.3638,658.968
206.2000,-37.567,662.94
206.1000,-36.8657,666.993
206.0000,-35.6093,671.11
205.9000,-33.6236,675.306
205.8000,-30.7677,679.566
205.7000,-29.5355,683.803
205.6000,-28.3148,688.091
205.5000,-27.2335,692.431
205.4000,-26.89,696.789
205.3000,-25.8915,701.199
205.2000,-24.1533,705.674
205.1000,-22.9891,710.156
205.0000,-20.2687,714.714
204.9000,-18.7158,719.261
204.8000,-17.0711,723.845
204.7000,-14.5467,728.476
204.6000,-11.3257,733.154
204.5000,-10.1661,737.778
204.4000,-7.45968,742.467
204.3000,-5.56327,747.121
204.2000,-6.34783,751.707
204.1000,-8.70731,756.25
204.0000,-12.1415,760.78
203.9000,-15.6314,765.275
203.8000,-17.6319,769.768
203.7000,-16.7856,774.339
203.6000,-18.6219,778.807
203.5000,-21.3724,783.225
203.4000,-22.712,787.655
203.3000,-25.2077,792.007
203.2000,-27.1577,796.312
203.1000,-27.6846,800.61
203.0000,-30.1669,804.763
202.9000,-30.921,808.914
202.8000,-31.7684,812.952
202.7000,-33.3517,816.875
202.6000,-27.8489,820.922
202.5000,-24.2944,824.819
202.4000,-22.5278,828.523
202.3000,-17.5176,832.238
202.2000,-19.6265,835.623
202.1000,-24.1567,838.828
202.0000,-26.8368,841.973
201.9000,-25.2336,845.078
201.8000,-23.3751,848.108
201.7000,-24.0529,850.898
201.6000,-22.079,853.668
201.5000,-23.2676,856.18
201.4000,-24.5433,858.532
201.3000,-23.2677,860.85
201.2000,-22.0016,862.979
201.1000,-19.0309,865.026
201.0000,-18.9103,866.861
200.9000,-24.8443,868.358
200.8000,-29.6555,869.773
200.7000,-35.6179,870.962
200.6000,-41.1016,872.013
200.5000,-40.4758,873.134
200.4000,-39.1263,874.152
200.3000,-35.9925,875.13
200.2000,-33.2355,875.971
200.1000,-27.8796,876.738
200.0000,-18.3335,877.541
199.9000,-13.5017,878.103
199.8000,-19.2975,878.214
199.7000,-24.2924,878.238
199.6000,-31.732,878.097
199.5000,-35.7875,878
199.4000,-41.3794,877.761
199.3000,-43.4992,877.464
199.2000,-41.4455,877.317
199.1000,-30.3382,877.419
199.0000,-21.8175,877.411
198.9000,-18.5392,877.064
198.8000,-14.4519,876.749
198.7000,-10.7615,876.439
198.6000,-7.42558,875.991
198.5000,-9.03561,875.39
198.4000,-13.2485,874.78
198.3000,-19.3215,874.089
198.2000,-12.0353,873.674
198.1000,-1.10547,873.44
198.0000,7.27071,872.722
197.9000,15.35,872.29
197.8000,16.727,871.489
197.7000,20.6579,870.939
197.6000,23.4112,870.359
197.5000,19.413,869.353
197.4000,7.79746,867.32
197.3000,3.23681,866.02
197.2000,0.95484,865.021
197.1000,-3.92606,864.193
197.0000,-4.3566,863.135
196.9000,-7.67488,861.682
196.8000,-5.89182,860.087
196.7000,-6.78445,859.029
196.6000,-10.6257,857.076
196.5000,-14.0638,855.903
196.4000,-14.2556,854.725
196.3000,-13.3119,852.999
196.2000,-13.305,843.817
196.1000,-12.0498,830.703
196.0000,-13.1526,835.251
195.9000,-15.1105,840.956
195.8000,-13.1893,847.262
195.7000,-13.4009,854.142
195.6000,-12.5958,860.45
195.5000,-8.3718,850.234
195.4000,-5.71391,817.487
195.3000,-6.94166,775.528
195.2000,-8.09089,729.401
195.1000,-9.45936,681.406
195.0000,-8.3999,631.561
194.9000,-8.17961,593.968
194.8000,-9.33938,588.412
194.7000,-8.14246,597.316
194.6000,-5.82949,606.512
194.5000,-6.11996,631.972
194.4000,-8.7656,644.398
194.3000,-8.55426,645.174
194.2000,-5.78998,643.889
194.1000,-4.49781,641.807
194.0000,1.96478,639.528
193.9000,3.10923,638.99
193.8000,3.5894,662.683
193.7000,2.92532,703.4
193.6000,5.78413,751.842
193.5000,2.39197,803.747
193.4000,-5.10507,857.426
193.3000,-10.4684,912.132
193.2000,-11.8268,944.035
193.1000,-8.93812,947.335
193.0000,-6.8912,944.185
192.9000,-8.559,940.357
192.8000,-9.09827,936.543
192.7000,-12.3788,933.027
192.6000,-18.7207,931.967
192.5000,-21.4898,932.339
192.4000,-16.7123,933.386
192.3000,-17.8478,934.595
192.2000,-18.7209,935.571
192.1000,-19.1321,936.836
192.0000,-21.0658,937.464
191.9000,-21.2392,938.01
191.8000,-10.4916,938.814
191.7000,-5.45478,939.426
191.6000,-1.73368,939.832
191.5000,0.765848,940.11
191.4000,-4.96938,940.18
191.3000,-8.07759,940.166
191.2000,-0.232944,940.602
191.1000,12.1181,941.211
191.0000,26.439,941.983
190.9000,42.7678,942.734
190.8000,52.4567,943.391
190.7000,56.9949,943.892
190.6000,57.8413,944.301
190.5000,58.5928,944.855
190.4000,58.7005,945.293
190.3000,57.2701,945.789
190.2000,49.4057,946.014
190.1000,40.8843,946.201
190.0000,36.4231,946.534

##### Extended Information
[Comments]
Sample name,DL121 15C Lit melt post scan 2
Comment
User,JM
Division
Company,UT Southwestern Medical Center at Dallas

[Detailed Information]
Creation date,5/1/2023 5:56 PM

Data array type,Linear data array * 2
Horizontal axis,Wavelength [nm]
Vertical axis(1),CD [mdeg]
Vertical axis(2),HT [V]
Start,250 nm
End,190 nm
Data interval,0.1 nm
Data points,601     

[Measurement Information]
Instrument name,Jasco CD
Model name,J-815
Serial No.,B064061168

Accessory,CDF-426S
Accessory S/N,A00861183
  Temperature,14.99 C
  Control sonsor,Holder
  Monitor sensor,Holder
  Start Mode,Keep target temperature +/-0.10 deg C while 5 seconds
  Cell length,10 mm

Measurement date,5/1/2023 5:56 PM

Photometric mode,CD, HT
Measure range,250 - 190 nm
Data pitch,0.1 nm
Sensitivity,Standard
D.I.T.,1 sec
Bandwidth,1.00 nm
Start mode,Immediately
Scanning speed,100 nm/min
Baseline correction,None
Shutter control,Manual
CD detector,PMT
PMT voltage,Auto
No. of cycle,3/3

Concentration,0.7 (w/v)%
Solvent,50mM nap04 ph 6.5 100mM NaF

