TITLE,DL121 60C Lit
DATA TYPE,
ORIGIN,JASCO
OWNER,
DATE,23/05/01
TIME,15:00:17
SPECTROMETER/DATA SYSTEM,
LOCALE,1033
RESOLUTION,
DELTAX,-0.1
XUNITS,NANOMETERS
YUNITS,CD [mdeg]
Y2UNITS,HT [V]
FIRSTX,  250.0000
LASTX,  190.0000
NPOINTS,     601
FIRSTY,    -0.68665
MAXY,    65.94652
MINY,   -48.86613
XYDATA
250.0000,-0.686646,296.602
249.9000,-0.76214,296.66
249.8000,-0.839337,296.729
249.7000,-0.958337,296.798
249.6000,-1.03072,296.86
249.5000,-1.06051,296.923
249.4000,-1.05864,296.986
249.3000,-1.06796,297.051
249.2000,-1.0374,297.128
249.1000,-1.00949,297.206
249.0000,-1.01044,297.279
248.9000,-0.9867,297.353
248.8000,-0.98555,297.426
248.7000,-1.01342,297.499
248.6000,-0.992041,297.575
248.5000,-0.981232,297.657
248.4000,-1.01358,297.733
248.3000,-1.06458,297.811
248.2000,-1.09575,297.889
248.1000,-1.12094,297.962
248.0000,-1.13906,298.043
247.9000,-1.20601,298.129
247.8000,-1.31032,298.214
247.7000,-1.40448,298.299
247.6000,-1.48441,298.386
247.5000,-1.57221,298.466
247.4000,-1.63838,298.547
247.3000,-1.67819,298.633
247.2000,-1.72292,298.72
247.1000,-1.73509,298.813
247.0000,-1.81715,298.905
246.9000,-1.94373,299
246.8000,-2.05772,299.096
246.7000,-2.13849,299.195
246.6000,-2.19491,299.295
246.5000,-2.20555,299.405
246.4000,-2.24578,299.518
246.3000,-2.275,299.628
246.2000,-2.27542,299.736
246.1000,-2.2719,299.847
246.0000,-2.26302,299.958
245.9000,-2.25684,300.075
245.8000,-2.27354,300.193
245.7000,-2.29505,300.312
245.6000,-2.33867,300.427
245.5000,-2.36692,300.536
245.4000,-2.36095,300.644
245.3000,-2.35957,300.753
245.2000,-2.33799,300.866
245.1000,-2.30411,300.989
245.0000,-2.30912,301.112
244.9000,-2.27482,301.234
244.8000,-2.27435,301.351
244.7000,-2.28831,301.467
244.6000,-2.30703,301.588
244.5000,-2.32769,301.718
244.4000,-2.36435,301.85
244.3000,-2.4118,301.985
244.2000,-2.47882,302.116
244.1000,-2.51017,302.25
244.0000,-2.50983,302.383
243.9000,-2.50239,302.517
243.8000,-2.52607,302.662
243.7000,-2.59204,302.813
243.6000,-2.64802,302.967
243.5000,-2.67668,303.119
243.4000,-2.6822,303.266
243.3000,-2.6843,303.418
243.2000,-2.74888,303.574
243.1000,-2.81801,303.736
243.0000,-2.92178,303.903
242.9000,-3.07356,301.485
242.8000,-3.0944,295.541
242.7000,-3.03088,291.339
242.6000,-2.90187,287.296
242.5000,-2.79823,284.926
242.4000,-2.77132,284.973
242.3000,-2.86537,285.155
242.2000,-3.00805,285.346
242.1000,-3.14757,285.532
242.0000,-3.25779,285.713
241.9000,-3.29893,285.899
241.8000,-3.37284,286.091
241.7000,-3.52292,286.286
241.6000,-3.70356,286.483
241.5000,-3.85102,286.683
241.4000,-3.93259,286.885
241.3000,-3.99527,287.125
241.2000,-4.04566,292.42
241.1000,-4.22049,297.706
241.0000,-4.45899,302.189
240.9000,-4.66683,306.624
240.8000,-4.84398,308.082
240.7000,-5.01208,308.342
240.6000,-5.15274,308.565
240.5000,-5.25807,308.791
240.4000,-5.35599,309.027
240.3000,-5.47356,309.271
240.2000,-5.60503,309.516
240.1000,-5.71936,309.764
240.0000,-5.76323,310.02
239.9000,-5.82928,310.278
239.8000,-5.90119,310.537
239.7000,-5.9858,310.801
239.6000,-6.08828,311.072
239.5000,-6.18115,311.347
239.4000,-6.24861,311.622
239.3000,-6.36083,311.897
239.2000,-6.48092,312.177
239.1000,-6.59643,312.464
239.0000,-6.65177,312.758
238.9000,-6.73774,313.06
238.8000,-6.81548,313.368
238.7000,-6.85313,313.679
238.6000,-6.87804,313.998
238.5000,-6.94342,314.323
238.4000,-6.97615,314.652
238.3000,-7.07781,314.982
238.2000,-7.15207,315.316
238.1000,-7.24255,315.655
238.0000,-7.36394,315.999
237.9000,-7.43432,316.352
237.8000,-7.54847,316.714
237.7000,-7.70567,317.085
237.6000,-7.84631,317.46
237.5000,-8.04734,317.836
237.4000,-8.26395,318.22
237.3000,-8.40465,318.617
237.2000,-8.46683,319.021
237.1000,-8.61352,319.425
237.0000,-8.84783,319.828
236.9000,-9.02693,320.237
236.8000,-9.16241,320.653
236.7000,-9.3201,321.081
236.6000,-9.50161,321.519
236.5000,-9.69922,321.966
236.4000,-9.82647,322.428
236.3000,-9.93111,322.898
236.2000,-10.0866,323.371
236.1000,-10.1904,323.843
236.0000,-10.2718,324.321
235.9000,-10.3649,324.807
235.8000,-10.4579,325.305
235.7000,-10.5787,325.801
235.6000,-10.7942,326.296
235.5000,-10.9961,326.797
235.4000,-11.192,327.307
235.3000,-11.3935,327.826
235.2000,-11.6071,328.354
235.1000,-11.7706,328.89
235.0000,-11.9606,329.428
234.9000,-12.1095,329.974
234.8000,-12.2783,330.525
234.7000,-12.5542,331.073
234.6000,-12.8134,331.628
234.5000,-12.9616,332.192
234.4000,-13.0946,332.766
234.3000,-13.2382,333.351
234.2000,-13.3577,333.948
234.1000,-13.5087,334.55
234.0000,-13.6782,335.159
233.9000,-13.8406,335.776
233.8000,-14.0041,336.396
233.7000,-14.0988,337.03
233.6000,-14.1942,337.677
233.5000,-14.3565,338.325
233.4000,-14.5321,338.976
233.3000,-14.6791,339.638
233.2000,-14.8283,340.308
233.1000,-14.9118,340.986
233.0000,-15.0232,341.671
232.9000,-15.1241,342.36
232.8000,-15.3056,343.048
232.7000,-15.5142,343.745
232.6000,-15.7997,344.437
232.5000,-16.0821,345.134
232.4000,-16.2814,345.842
232.3000,-16.4346,346.565
232.2000,-16.5491,347.294
232.1000,-16.685,348.031
232.0000,-16.8845,348.771
231.9000,-17.062,349.514
231.8000,-17.2703,350.266
231.7000,-17.4139,351.023
231.6000,-17.6244,351.777
231.5000,-17.8564,352.529
231.4000,-18.0532,353.286
231.3000,-18.1597,354.056
231.2000,-18.2571,354.835
231.1000,-18.446,355.619
231.0000,-18.6098,356.405
230.9000,-18.7783,357.197
230.8000,-18.905,357.988
230.7000,-18.9881,358.782
230.6000,-19.0739,359.579
230.5000,-19.2453,360.376
230.4000,-19.3485,361.169
230.3000,-19.462,361.954
230.2000,-19.6119,362.734
230.1000,-19.7619,363.523
230.0000,-19.9333,364.325
229.9000,-20.0657,365.135
229.8000,-20.2108,365.948
229.7000,-20.4851,366.758
229.6000,-20.8472,367.562
229.5000,-21.1979,368.367
229.4000,-21.5496,369.175
229.3000,-21.88,369.988
229.2000,-22.0602,370.806
229.1000,-22.251,371.63
229.0000,-22.5314,372.447
228.9000,-22.8093,373.262
228.8000,-23.0602,374.085
228.7000,-23.3891,374.912
228.6000,-23.6823,375.755
228.5000,-23.9659,376.606
228.4000,-24.2296,377.447
228.3000,-24.6406,378.277
228.2000,-24.994,379.104
228.1000,-25.2763,379.934
228.0000,-25.5441,380.766
227.9000,-25.8066,381.598
227.8000,-26.0471,382.427
227.7000,-26.1596,383.259
227.6000,-26.249,384.091
227.5000,-26.4492,384.919
227.4000,-26.6821,385.742
227.3000,-26.8562,386.565
227.2000,-27.0728,387.387
227.1000,-27.2876,388.207
227.0000,-27.4412,389.026
226.9000,-27.6056,389.837
226.8000,-27.7536,390.647
226.7000,-27.9758,391.454
226.6000,-28.0877,392.27
226.5000,-28.2222,393.095
226.4000,-28.3722,393.916
226.3000,-28.4231,394.737
226.2000,-28.5533,395.553
226.1000,-28.6557,396.37
226.0000,-28.8211,397.184
225.9000,-28.9469,398.001
225.8000,-28.8314,393.312
225.7000,-28.0563,378.991
225.6000,-26.9232,360.041
225.5000,-25.5636,338.855
225.4000,-24.1082,326.744
225.3000,-23.0886,326.722
225.2000,-22.574,327.491
225.1000,-22.3732,328.312
225.0000,-22.3141,329.136
224.9000,-22.2258,329.95
224.8000,-22.2436,330.757
224.7000,-22.4043,331.564
224.6000,-22.5895,332.375
224.5000,-22.8097,333.187
224.4000,-23.0886,333.999
224.3000,-23.3636,334.806
224.2000,-23.6227,336.055
224.1000,-24.4219,346.192
224.0000,-25.7337,364.094
223.9000,-27.4445,385.58
223.8000,-29.2953,408.704
223.7000,-31.07,415.508
223.6000,-32.2379,416.644
223.5000,-32.8726,417.46
223.4000,-33.195,418.253
223.3000,-33.421,419.05
223.2000,-33.744,419.848
223.1000,-34.043,420.645
223.0000,-34.356,421.439
222.9000,-34.8022,422.224
222.8000,-35.3568,423.001
222.7000,-35.89,423.779
222.6000,-36.4771,424.562
222.5000,-37.0626,425.355
222.4000,-37.4759,426.155
222.3000,-37.8024,426.955
222.2000,-38.0456,427.752
222.1000,-38.2825,428.544
222.0000,-38.5011,429.343
221.9000,-38.844,430.143
221.8000,-39.3769,430.937
221.7000,-39.8934,431.73
221.6000,-40.3839,432.517
221.5000,-40.7209,433.311
221.4000,-40.9907,434.105
221.3000,-41.1078,434.911
221.2000,-41.1997,435.723
221.1000,-40.8439,436.55
221.0000,-40.5076,437.377
220.9000,-40.1833,438.201
220.8000,-40.013,439.011
220.7000,-39.9995,439.818
220.6000,-39.8319,440.645
220.5000,-39.822,441.469
220.4000,-40.0474,442.289
220.3000,-40.4231,443.104
220.2000,-40.5566,443.925
220.1000,-40.6593,444.757
220.0000,-40.9085,445.59
219.9000,-41.1439,446.432
219.8000,-41.3404,447.272
219.7000,-41.5675,448.107
219.6000,-41.6388,448.943
219.5000,-41.6163,449.787
219.4000,-42.0006,450.631
219.3000,-42.4623,451.473
219.2000,-42.9997,452.32
219.1000,-43.3967,453.178
219.0000,-43.735,454.035
218.9000,-44.0072,454.891
218.8000,-44.3552,455.753
218.7000,-44.3466,456.629
218.6000,-44.4665,457.501
218.5000,-44.6462,458.381
218.4000,-44.8543,459.263
218.3000,-44.67,460.157
218.2000,-44.5804,461.049
218.1000,-44.6747,461.942
218.0000,-44.9449,462.843
217.9000,-45.1077,463.759
217.8000,-45.2546,464.679
217.7000,-45.2836,465.6
217.6000,-45.3876,466.528
217.5000,-45.3368,467.457
217.4000,-45.4649,468.389
217.3000,-45.6328,469.331
217.2000,-45.9144,470.283
217.1000,-45.7879,471.258
217.0000,-45.9017,472.233
216.9000,-46.0227,473.213
216.8000,-45.952,474.203
216.7000,-46.1077,475.202
216.6000,-46.2202,476.226
216.5000,-46.0174,477.282
216.4000,-45.7118,478.352
216.3000,-45.4978,479.421
216.2000,-45.4821,480.49
216.1000,-45.5181,481.571
216.0000,-45.451,482.674
215.9000,-45.156,483.799
215.8000,-44.9072,484.937
215.7000,-44.6915,486.083
215.6000,-44.5036,487.236
215.5000,-44.4137,488.398
215.4000,-44.4517,489.569
215.3000,-44.4348,490.757
215.2000,-44.2874,491.961
215.1000,-44.0694,493.182
215.0000,-44.1153,494.407
214.9000,-44.2901,495.628
214.8000,-44.5883,496.856
214.7000,-44.8893,498.109
214.6000,-45.2506,499.382
214.5000,-45.4334,500.675
214.4000,-45.4813,501.985
214.3000,-45.6584,503.313
214.2000,-45.9211,504.652
214.1000,-46.527,506.001
214.0000,-46.7729,507.38
213.9000,-46.6791,508.786
213.8000,-46.4906,510.209
213.7000,-46.1508,511.667
213.6000,-45.8898,513.149
213.5000,-46.0121,514.645
213.4000,-46.1811,516.146
213.3000,-45.8737,517.68
213.2000,-46.0831,519.215
213.1000,-45.8196,520.789
213.0000,-45.2937,522.391
212.9000,-44.9936,524.015
212.8000,-44.6933,525.668
212.7000,-44.3891,527.338
212.6000,-44.2504,529.019
212.5000,-44.2677,530.727
212.4000,-44.4167,532.466
212.3000,-44.5965,534.228
212.2000,-44.705,536.013
212.1000,-44.8377,537.818
212.0000,-44.8304,539.646
211.9000,-44.5511,541.503
211.8000,-43.6696,543.414
211.7000,-43.0593,545.36
211.6000,-42.5545,547.331
211.5000,-42.0597,549.324
211.4000,-41.9978,551.316
211.3000,-41.7102,553.345
211.2000,-41.3538,555.402
211.1000,-41.2733,557.477
211.0000,-41.4232,559.572
210.9000,-41.1191,561.699
210.8000,-40.0111,563.872
210.7000,-38.5622,566.084
210.6000,-37.4058,568.329
210.5000,-36.6799,570.599
210.4000,-35.9832,572.9
210.3000,-35.1398,575.241
210.2000,-34.6009,577.614
210.1000,-33.9737,580.022
210.0000,-33.7846,582.444
209.9000,-34.11,584.894
209.8000,-34.6455,587.388
209.7000,-34.9237,589.933
209.6000,-35.1602,592.513
209.5000,-35.8352,595.12
209.4000,-36.5066,597.763
209.3000,-36.3006,600.479
209.2000,-36.4573,603.226
209.1000,-36.6276,606.024
209.0000,-36.9516,608.861
208.9000,-37.1665,611.748
208.8000,-37.8798,614.454
208.7000,-38.3069,603.987
208.6000,-37.9588,580.229
208.5000,-37.1664,550.372
208.4000,-36.0278,517.482
208.3000,-34.1228,482.977
208.2000,-31.6151,450.776
208.1000,-28.7806,444.817
208.0000,-27.0407,447.771
207.9000,-25.9191,451.644
207.8000,-25.1196,455.609
207.7000,-24.9112,459.594
207.6000,-25.0108,463.614
207.5000,-24.9341,467.678
207.4000,-25.1774,471.773
207.3000,-25.2139,475.906
207.2000,-24.6242,480.087
207.1000,-24.2961,486.732
207.0000,-25.0543,510.056
206.9000,-27.6358,543.622
206.8000,-31.6275,582.043
206.7000,-34.8643,623.061
206.6000,-36.2536,665.599
206.5000,-38.3763,698.357
206.4000,-40.4815,707.023
206.3000,-41.4841,711.575
206.2000,-42.5964,715.762
206.1000,-42.7096,720.029
206.0000,-42.826,724.366
205.9000,-44.4688,728.707
205.8000,-45.9345,733.116
205.7000,-45.5213,737.618
205.6000,-46.1279,742.158
205.5000,-48.5644,746.692
205.4000,-48.8661,751.328
205.3000,-48.806,756.006
205.2000,-42.9523,760.874
205.1000,-36.3181,765.78
205.0000,-31.8881,770.64
204.9000,-28.7599,775.45
204.8000,-25.5509,780.217
204.7000,-23.0121,784.955
204.6000,-20.8611,789.685
204.5000,-16.1014,794.508
204.4000,-8.0633,799.439
204.3000,-1.39164,804.332
204.2000,3.20013,809.161
204.1000,8.94784,814.028
204.0000,15.4231,818.89
203.9000,25.0532,823.801
203.8000,31.1484,828.615
203.7000,32.2501,833.24
203.6000,36.964,837.971
203.5000,35.4719,842.461
203.4000,30.2552,846.749
203.3000,23.8355,850.957
203.2000,14.6641,854.983
203.1000,9.54556,859.089
203.0000,7.40089,863.208
202.9000,5.70347,867.25
202.8000,2.90241,871.139
202.7000,2.79252,875.011
202.6000,5.37379,878.832
202.5000,5.27028,882.419
202.4000,5.12439,885.907
202.3000,4.38084,889.226
202.2000,3.95934,892.431
202.1000,8.50729,895.654
202.0000,12.1312,898.674
201.9000,6.35667,901.229
201.8000,9.65734,903.883
201.7000,15.5035,906.467
201.6000,18.6502,908.845
201.5000,24.7474,911.142
201.4000,27.3648,913.157
201.3000,30.8319,915.122
201.2000,42.4698,917.229
201.1000,48.4998,918.813
201.0000,48.1919,920.165
200.9000,48.6724,921.312
200.8000,46.0938,922.513
200.7000,38.6384,923.217
200.6000,26.5619,911.181
200.5000,21.8204,908.689
200.4000,17.0018,900.06
200.3000,16.2134,896.194
200.2000,19.9712,898.88
200.1000,18.4429,894.603
200.0000,19.0225,866.254
199.9000,22.5771,855.398
199.8000,20.0123,860.495
199.7000,22.1593,866.893
199.6000,18.4541,873.063
199.5000,7.56974,879.04
199.4000,-2.17699,885.096
199.3000,-10.7157,891.142
199.2000,-14.521,897.321
199.1000,-15.6228,903.309
199.0000,-16.4956,911.983
198.9000,-18.4856,929.862
198.8000,-25.2592,939.773
198.7000,-25.001,956.628
198.6000,-25.4106,962.722
198.5000,-28.3247,966.684
198.4000,-27.9163,985.835
198.3000,-23.4254,1020.75
198.2000,-15.6122,1029.89
198.1000,-14.101,1030.4
198.0000,-16.4223,1030.37
197.9000,-14.7457,1030.42
197.8000,-5.36424,1030.71
197.7000,10.1955,1031.24
197.6000,20.3381,1031.55
197.5000,25.6347,1031.71
197.4000,33.7541,1031.96
197.3000,41.2619,1032.2
197.2000,43.2888,1032.26
197.1000,41.2176,1032.2
197.0000,42.2295,1032.22
196.9000,47.5921,1032.38
196.8000,47.2782,1032.37
196.7000,45.7943,1032.33
196.6000,39.9977,1032.16
196.5000,36.1534,1032.05
196.4000,38.2168,1032.11
196.3000,36.1204,1032.04
196.2000,29.9734,1031.85
196.1000,17.0214,1031.42
196.0000,5.82341,1031.05
195.9000,-1.65843,1030.82
195.8000,-4.91287,1030.72
195.7000,-3.14083,1030.77
195.6000,-0.325305,1030.86
195.5000,10.1887,1031.19
195.4000,18.7137,1031.45
195.3000,16.124,1031.38
195.2000,15.3508,1031.35
195.1000,16.8692,1031.4
195.0000,18.5068,1031.45
194.9000,17.2629,1031.41
194.8000,13.4939,1031.29
194.7000,10.8379,1031.21
194.6000,14.972,1031.34
194.5000,22.8014,1031.58
194.4000,29.3988,1031.78
194.3000,32.0652,1031.86
194.2000,41.588,1032.15
194.1000,38.1869,1032.04
194.0000,28.1867,1031.73
193.9000,19.8765,1031.46
193.8000,15.1865,1031.33
193.7000,16.0763,1031.35
193.6000,14.6826,1031.3
193.5000,10.1522,1031.16
193.4000,12.8229,1031.24
193.3000,13.1001,1031.25
193.2000,14.7922,1031.3
193.1000,22.9339,1031.55
193.0000,25.8714,1031.63
192.9000,23.6211,1031.57
192.8000,26.7901,1031.66
192.7000,33.5246,1031.86
192.6000,38.7529,1032.02
192.5000,39.8168,1032.05
192.4000,51.4924,1032.4
192.3000,60.3236,1032.67
192.2000,65.9465,1032.8
192.1000,63.2276,1032.7
192.0000,59.8573,1030.05
191.9000,65.2955,1028.37
191.8000,63.2651,1028.3
191.7000,57.9017,1025.99
191.6000,55.575,996.144
191.5000,52.4886,949.084
191.4000,48.9724,894.6
191.3000,45.2348,836.575
191.2000,42.922,776.784
191.1000,33.2665,715.83
191.0000,22.0956,673.24
190.9000,13.7888,663.211
190.8000,-0.486774,661.898
190.7000,-15.4043,661.185
190.6000,-25.4858,660.753
190.5000,-29.6717,660.596
190.4000,-34.4691,660.478
190.3000,-39.521,662.744
190.2000,-44.3357,639.646
190.1000,-42.9808,627.429
190.0000,-38.128,636.174

##### Extended Information
[Comments]
Sample name,DL121 60C Lit
Comment
User,JM
Division
Company,UT Southwestern Medical Center at Dallas

[Detailed Information]
Creation date,5/1/2023 3:00 PM

Data array type,Linear data array * 2
Horizontal axis,Wavelength [nm]
Vertical axis(1),CD [mdeg]
Vertical axis(2),HT [V]
Start,250 nm
End,190 nm
Data interval,0.1 nm
Data points,601     

[Measurement Information]
Instrument name,Jasco CD
Model name,J-815
Serial No.,B064061168

Accessory,CDF-426S
Accessory S/N,A00861183
  Temperature,60.01 C
  Control sonsor,Holder
  Monitor sensor,Holder
  Start Mode,Keep target temperature +/-0.10 deg C while 5 seconds
  Cell length,10 mm

Measurement date,5/1/2023 3:00 PM

Photometric mode,CD, HT
Measure range,250 - 190 nm
Data pitch,0.1 nm
Sensitivity,Standard
D.I.T.,1 sec
Bandwidth,1.00 nm
Start mode,Immediately
Scanning speed,100 nm/min
Baseline correction,None
Shutter control,Manual
CD detector,PMT
PMT voltage,Auto
No. of cycle,2/3

Concentration,0.7 (w/v)%
Solvent,50mM nap04 ph 6.5 100mM NaF

