TITLE,DL121 15C dark melt post scan 2
DATA TYPE,
ORIGIN,JASCO
OWNER,
DATE,23/05/01
TIME,17:53:36
SPECTROMETER/DATA SYSTEM,
LOCALE,1033
RESOLUTION,
DELTAX,-0.1
XUNITS,NANOMETERS
YUNITS,CD [mdeg]
Y2UNITS,HT [V]
FIRSTX,  250.0000
LASTX,  190.0000
NPOINTS,     601
FIRSTY,    -0.30210
MAXY,    83.18311
MINY,  -108.71600
XYDATA
250.0000,-0.302097,291.824
249.9000,-0.261996,291.877
249.8000,-0.225946,291.935
249.7000,-0.145032,291.996
249.6000,-0.0755463,292.057
249.5000,-0.0600861,292.119
249.4000,-0.101694,292.172
249.3000,-0.141425,292.227
249.2000,-0.178683,292.291
249.1000,-0.244263,292.352
249.0000,-0.336871,292.408
248.9000,-0.390991,292.463
248.8000,-0.439456,292.518
248.7000,-0.500073,292.575
248.6000,-0.522104,292.634
248.5000,-0.524973,292.695
248.4000,-0.512662,292.754
248.3000,-0.557242,292.816
248.2000,-0.628235,292.875
248.1000,-0.701538,292.927
248.0000,-0.792111,292.979
247.9000,-0.848557,293.035
247.8000,-0.864105,293.091
247.7000,-0.867612,293.153
247.6000,-0.863306,293.215
247.5000,-0.867999,293.271
247.4000,-0.863995,293.333
247.3000,-0.809781,293.402
247.2000,-0.796552,293.473
247.1000,-0.802463,293.55
247.0000,-0.792435,293.632
246.9000,-0.813046,293.711
246.8000,-0.813251,293.788
246.7000,-0.814871,293.866
246.6000,-0.796808,293.948
246.5000,-0.764572,294.036
246.4000,-0.734058,294.129
246.3000,-0.701114,294.224
246.2000,-0.706241,294.318
246.1000,-0.747766,294.414
246.0000,-0.792444,294.506
245.9000,-0.86398,294.597
245.8000,-0.911246,294.691
245.7000,-0.950519,294.785
245.6000,-1.04791,294.873
245.5000,-1.15773,294.961
245.4000,-1.24908,295.044
245.3000,-1.31595,295.127
245.2000,-1.30737,295.216
245.1000,-1.29894,295.315
245.0000,-1.29451,295.42
244.9000,-1.32513,295.523
244.8000,-1.36381,295.622
244.7000,-1.39645,295.718
244.6000,-1.39476,295.814
244.5000,-1.36365,295.915
244.4000,-1.33513,296.02
244.3000,-1.33801,296.129
244.2000,-1.36119,296.238
244.1000,-1.3938,296.343
244.0000,-1.42211,296.445
243.9000,-1.45522,296.552
243.8000,-1.46659,296.67
243.7000,-1.4946,296.795
243.6000,-1.55116,296.922
243.5000,-1.6344,297.048
243.4000,-1.72066,297.169
243.3000,-1.81644,297.286
243.2000,-1.86698,297.404
243.1000,-1.88836,297.528
243.0000,-1.91511,297.655
242.9000,-1.98998,297.786
242.8000,-2.10419,297.918
242.7000,-2.16155,298.052
242.6000,-2.176,298.188
242.5000,-2.18919,298.328
242.4000,-2.20325,298.476
242.3000,-2.24158,298.631
242.2000,-2.25944,298.785
242.1000,-2.28703,298.931
242.0000,-2.28184,299.075
241.9000,-2.30738,299.219
241.8000,-2.31848,299.37
241.7000,-2.36338,299.525
241.6000,-2.37599,299.687
241.5000,-2.43655,299.852
241.4000,-2.50889,300.017
241.3000,-2.56343,300.187
241.2000,-2.61138,300.365
241.1000,-2.65457,300.541
241.0000,-2.72024,300.721
240.9000,-2.79903,300.905
240.8000,-2.85796,301.094
240.7000,-2.92954,301.285
240.6000,-2.96862,301.475
240.5000,-3.01167,301.675
240.4000,-3.03094,301.887
240.3000,-3.07907,302.107
240.2000,-3.12805,302.33
240.1000,-3.20062,302.551
240.0000,-3.2377,302.775
239.9000,-3.33344,303.005
239.8000,-3.41368,303.247
239.7000,-3.49167,303.499
239.6000,-3.58491,303.75
239.5000,-3.64698,303.998
239.4000,-3.70461,304.251
239.3000,-3.77333,304.508
239.2000,-3.81695,304.767
239.1000,-3.86572,305.038
239.0000,-3.87147,305.315
238.9000,-3.92036,305.596
238.8000,-4.0155,305.871
238.7000,-4.12277,306.145
238.6000,-4.24618,306.424
238.5000,-4.32738,306.714
238.4000,-4.42777,307.013
238.3000,-4.52134,307.318
238.2000,-4.58487,307.619
238.1000,-4.66943,307.916
238.0000,-4.78112,308.214
237.9000,-4.85983,308.52
237.8000,-4.95731,308.837
237.7000,-5.06474,309.165
237.6000,-5.15383,309.503
237.5000,-5.2922,309.839
237.4000,-5.45111,310.173
237.3000,-5.5653,310.513
237.2000,-5.66913,310.86
237.1000,-5.74294,311.221
237.0000,-5.85771,311.586
236.9000,-5.95994,311.951
236.8000,-6.10913,312.317
236.7000,-6.19405,312.69
236.6000,-6.28596,313.072
236.5000,-6.3181,313.465
236.4000,-6.38336,313.87
236.3000,-6.44308,314.287
236.2000,-6.50896,314.715
236.1000,-6.56651,315.143
236.0000,-6.66055,315.573
235.9000,-6.76041,316.011
235.8000,-6.79266,316.463
235.7000,-6.84009,316.918
235.6000,-6.93579,317.379
235.5000,-7.03698,317.846
235.4000,-7.13695,318.321
235.3000,-7.19319,318.806
235.2000,-7.21075,319.304
235.1000,-7.27232,319.806
235.0000,-7.34905,320.31
234.9000,-7.46838,320.821
234.8000,-7.60315,321.347
234.7000,-7.74301,321.878
234.6000,-7.86634,322.411
234.5000,-7.98875,322.952
234.4000,-8.13511,323.5
234.3000,-8.27677,324.052
234.2000,-8.45226,324.606
234.1000,-8.69317,325.161
234.0000,-8.95522,325.729
233.9000,-9.144,326.312
233.8000,-9.33183,326.902
233.7000,-9.52379,327.496
233.6000,-9.73473,328.097
233.5000,-9.95862,328.702
233.4000,-10.1189,329.321
233.3000,-10.265,329.951
233.2000,-10.4186,330.591
233.1000,-10.5804,331.233
233.0000,-10.6911,331.874
232.9000,-10.865,332.516
232.8000,-11.0476,333.162
232.7000,-11.195,333.819
232.6000,-11.2779,334.484
232.5000,-11.389,335.159
232.4000,-11.4778,335.841
232.3000,-11.5517,336.527
232.2000,-11.6363,337.216
232.1000,-11.7746,337.909
232.0000,-11.9227,338.612
231.9000,-12.0574,339.324
231.8000,-12.1951,340.043
231.7000,-12.354,340.76
231.6000,-12.5394,341.477
231.5000,-12.6849,342.195
231.4000,-12.8477,342.919
231.3000,-12.9677,343.656
231.2000,-13.1074,344.398
231.1000,-13.2902,345.148
231.0000,-13.4476,345.901
230.9000,-13.6448,346.656
230.8000,-13.8286,347.405
230.7000,-13.964,348.162
230.6000,-14.1884,348.918
230.5000,-14.4309,349.679
230.4000,-14.6949,350.439
230.3000,-14.8826,351.195
230.2000,-14.9882,351.954
230.1000,-15.1223,352.711
230.0000,-15.257,353.474
229.9000,-15.4854,354.238
229.8000,-15.691,355.003
229.7000,-15.902,355.776
229.6000,-16.1997,356.547
229.5000,-16.445,357.317
229.4000,-16.6398,358.088
229.3000,-16.9686,358.861
229.2000,-17.1901,359.642
229.1000,-17.4189,360.431
229.0000,-17.6408,361.217
228.9000,-17.7923,362.002
228.8000,-17.9379,362.787
228.7000,-17.9945,363.581
228.6000,-18.1821,364.371
228.5000,-18.4347,365.162
228.4000,-18.714,365.958
228.3000,-18.9917,366.749
228.2000,-19.2543,367.534
228.1000,-19.5545,368.312
228.0000,-19.772,369.083
227.9000,-20.0178,369.853
227.8000,-20.3053,370.621
227.7000,-20.6016,371.388
227.6000,-20.8919,372.147
227.5000,-21.2233,372.901
227.4000,-21.5853,373.648
227.3000,-21.9361,374.395
227.2000,-22.3031,375.143
227.1000,-22.718,375.887
227.0000,-23.1666,376.624
226.9000,-23.6826,377.357
226.8000,-24.178,378.081
226.7000,-24.5138,378.809
226.6000,-24.8437,379.539
226.5000,-25.1518,380.276
226.4000,-25.4809,381.015
226.3000,-25.7858,381.762
226.2000,-26.0582,382.507
226.1000,-26.3293,383.243
226.0000,-26.5865,383.98
225.9000,-26.9589,384.72
225.8000,-27.2954,385.459
225.7000,-27.6418,386.199
225.6000,-28.0138,386.938
225.5000,-28.347,387.674
225.4000,-28.5281,388.418
225.3000,-28.6468,389.17
225.2000,-28.7007,389.925
225.1000,-28.766,390.675
225.0000,-28.835,391.416
224.9000,-28.9019,392.161
224.8000,-28.9709,392.906
224.7000,-29.0351,393.65
224.6000,-29.2929,394.376
224.5000,-29.4706,395.107
224.4000,-29.5127,395.847
224.3000,-29.6373,396.578
224.2000,-29.6384,397.31
224.1000,-29.7323,398.041
224.0000,-29.8802,398.769
223.9000,-29.9602,399.496
223.8000,-30.1852,400.215
223.7000,-30.4725,400.92
223.6000,-30.6769,401.62
223.5000,-30.8728,402.321
223.4000,-31.2428,403.02
223.3000,-31.6512,403.719
223.2000,-31.9678,404.419
223.1000,-32.3197,405.114
223.0000,-32.6375,405.806
222.9000,-32.7979,406.512
222.8000,-32.9681,407.215
222.7000,-33.1447,407.916
222.6000,-33.3633,408.616
222.5000,-33.652,409.314
222.4000,-33.757,410.015
222.3000,-33.9354,410.715
222.2000,-34.1386,411.421
222.1000,-34.3115,412.132
222.0000,-34.5735,412.845
221.9000,-34.8769,413.559
221.8000,-35.1166,414.273
221.7000,-35.2987,414.99
221.6000,-35.477,415.708
221.5000,-35.651,416.43
221.4000,-35.8591,417.155
221.3000,-36.1509,417.879
221.2000,-36.4669,418.599
221.1000,-36.7745,419.323
221.0000,-37.041,420.054
220.9000,-37.2197,420.788
220.8000,-37.4,421.522
220.7000,-37.7045,422.253
220.6000,-37.9508,422.986
220.5000,-38.0406,423.727
220.4000,-38.1358,424.475
220.3000,-38.2225,425.228
220.2000,-38.2611,425.983
220.1000,-38.4109,426.74
220.0000,-38.5927,427.493
219.9000,-38.6821,428.249
219.8000,-38.7904,429.007
219.7000,-38.772,429.768
219.6000,-38.7264,430.532
219.5000,-38.7793,431.294
219.4000,-39.056,432.044
219.3000,-39.4082,432.788
219.2000,-39.761,433.536
219.1000,-40.1045,434.288
219.0000,-40.4449,435.042
218.9000,-40.8626,435.795
218.8000,-41.2366,436.549
218.7000,-41.5071,437.303
218.6000,-41.6475,438.06
218.5000,-41.7283,438.823
218.4000,-41.7696,439.596
218.3000,-41.7869,440.385
218.2000,-41.8155,441.172
218.1000,-41.8868,441.956
218.0000,-42.1075,442.737
217.9000,-42.3526,443.521
217.8000,-42.6333,444.314
217.7000,-42.8975,445.115
217.6000,-42.9021,445.934
217.5000,-42.8559,446.76
217.4000,-42.7488,447.596
217.3000,-42.4253,448.449
217.2000,-42.1308,449.302
217.1000,-42.0145,450.15
217.0000,-42.0874,451.011
216.9000,-42.3414,451.881
216.8000,-42.6542,452.754
216.7000,-42.7838,453.626
216.6000,-43.1733,454.488
216.5000,-43.4985,455.366
216.4000,-43.903,456.26
216.3000,-44.4305,457.169
216.2000,-45.1143,458.079
216.1000,-45.4918,459.01
216.0000,-45.5481,459.966
215.9000,-45.7388,460.926
215.8000,-45.7165,461.901
215.7000,-45.8157,462.88
215.6000,-46.2072,463.866
215.5000,-46.3907,464.879
215.4000,-46.5534,465.902
215.3000,-46.5783,466.924
215.2000,-46.465,467.957
215.1000,-46.6528,468.999
215.0000,-46.9038,470.062
214.9000,-46.9419,471.144
214.8000,-47.0317,472.233
214.7000,-47.0275,473.333
214.6000,-46.3383,474.471
214.5000,-45.4332,475.638
214.4000,-44.963,476.814
214.3000,-44.7581,478
214.2000,-44.9002,479.188
214.1000,-45.0879,480.384
214.0000,-45.0159,481.599
213.9000,-44.7069,482.836
213.8000,-44.6142,484.087
213.7000,-44.6446,485.352
213.6000,-44.4662,486.644
213.5000,-44.1816,487.96
213.4000,-44.0349,489.286
213.3000,-43.8095,490.629
213.2000,-43.552,491.991
213.1000,-43.364,493.369
213.0000,-43.2411,494.766
212.9000,-43.4701,496.177
212.8000,-43.6466,497.598
212.7000,-43.508,499.04
212.6000,-43.3034,500.505
212.5000,-42.8518,502.009
212.4000,-42.968,503.525
212.3000,-43.0269,505.058
212.2000,-43.3602,506.593
212.1000,-43.3513,508.156
212.0000,-43.3171,509.751
211.9000,-43.4281,511.37
211.8000,-43.6138,513.008
211.7000,-43.4766,514.684
211.6000,-43.7142,516.367
211.5000,-43.9203,518.076
211.4000,-43.9761,519.814
211.3000,-43.9637,521.573
211.2000,-43.915,523.353
211.1000,-44.1604,525.148
211.0000,-44.3108,526.968
210.9000,-44.8714,528.802
210.8000,-45.1846,530.661
210.7000,-44.7088,532.582
210.6000,-44.6865,534.526
210.5000,-44.6396,536.513
210.4000,-44.9045,538.517
210.3000,-45.4092,540.545
210.2000,-45.7437,542.612
210.1000,-45.8161,544.721
210.0000,-45.4142,546.879
209.9000,-45.1604,549.078
209.8000,-44.8457,551.325
209.7000,-44.9006,553.595
209.6000,-45.3011,555.891
209.5000,-45.2636,558.238
209.4000,-44.9822,560.638
209.3000,-44.6632,563.081
209.2000,-44.1073,565.569
209.1000,-43.6204,568.105
209.0000,-43.2756,570.673
208.9000,-42.9048,573.285
208.8000,-42.8169,575.928
208.7000,-42.7072,578.627
208.6000,-42.1755,581.378
208.5000,-41.9166,584.17
208.4000,-41.8345,587.014
208.3000,-41.6367,589.911
208.2000,-40.989,592.864
208.1000,-40.5628,595.859
208.0000,-40.3463,598.892
207.9000,-39.9531,601.989
207.8000,-39.2591,605.143
207.7000,-38.2785,608.356
207.6000,-37.0331,611.638
207.5000,-36.5507,614.951
207.4000,-36.1839,618.32
207.3000,-35.6212,621.738
207.2000,-34.5267,625.229
207.1000,-33.3846,628.771
207.0000,-32.3879,632.354
206.9000,-31.5766,635.987
206.8000,-31.1627,639.647
206.7000,-31.0943,643.344
206.6000,-31.2693,647.09
206.5000,-31.2435,650.887
206.4000,-31.4909,654.733
206.3000,-31.4905,658.651
206.2000,-31.2158,662.629
206.1000,-31.8468,666.636
206.0000,-32.9468,670.677
205.9000,-34.8863,674.737
205.8000,-36.225,678.85
205.7000,-37.8407,682.992
205.6000,-38.5349,687.206
205.5000,-38.2642,691.498
205.4000,-37.6838,695.846
205.3000,-39.0011,700.155
205.2000,-39.7174,704.514
205.1000,-39.2063,708.938
205.0000,-37.6826,713.419
204.9000,-38.2872,717.853
204.8000,-35.6957,722.4
204.7000,-33.0594,726.962
204.6000,-31.2728,731.495
204.5000,-31.2381,735.975
204.4000,-29.2731,740.512
204.3000,-27.7083,745.025
204.2000,-27.0519,749.498
204.1000,-29.7936,753.856
204.0000,-32.1126,758.219
203.9000,-34.9837,762.52
203.8000,-36.149,766.823
203.7000,-38.1752,771.078
203.6000,-37.5121,775.364
203.5000,-37.5065,779.584
203.4000,-38.5647,783.708
203.3000,-40.7843,787.74
203.2000,-40.418,791.805
203.1000,-39.1117,795.848
203.0000,-36.3011,799.863
202.9000,-35.9556,803.743
202.8000,-36.6176,807.485
202.7000,-39.5986,811.093
202.6000,-37.621,814.767
202.5000,-30.4412,818.528
202.4000,-22.1793,822.236
202.3000,-14.1375,825.858
202.2000,-5.40636,829.456
202.1000,6.6811,833.059
202.0000,19.1246,836.585
201.9000,26.0324,839.905
201.8000,32.3678,843.122
201.7000,36.6547,846.196
201.6000,34.5267,848.969
201.5000,33.9063,851.7
201.4000,27.7095,854.203
201.3000,25.2021,856.737
201.2000,28.985,859.246
201.1000,33.961,845.901
201.0000,37.7469,831.118
200.9000,38.1077,834.389
200.8000,36.6129,839.473
200.7000,34.0843,844.548
200.6000,30.3122,849.507
200.5000,26.0664,854.409
200.4000,16.6014,859.048
200.3000,13.1568,863.819
200.2000,10.177,868.563
200.1000,-0.0648865,872.983
200.0000,-4.41763,877.533
199.9000,-8.25182,882.026
199.8000,-16.7886,886.29
199.7000,-24.3558,890.503
199.6000,-33.1672,894.604
199.5000,-46.4636,901.01
199.4000,-56.5256,928.052
199.3000,-63.3159,940.196
199.2000,-71.199,941.825
199.1000,-80.0262,942.644
199.0000,-85.3427,943.418
198.9000,-91.931,944.13
198.8000,-99.3521,944.791
198.7000,-101.385,945.566
198.6000,-106.429,946.179
198.5000,-108.716,946.749
198.4000,-106.175,947.466
198.3000,-99.3231,948.237
198.2000,-88.0426,949.117
198.1000,-76.2666,949.912
198.0000,-61.456,950.853
197.9000,-50.9244,951.504
197.8000,-43.1568,952.061
197.7000,-36.5381,952.427
197.6000,-28.2528,952.872
197.5000,-18.9604,953.381
197.4000,-6.37613,953.923
197.3000,7.40816,954.601
197.2000,19.8425,955.059
197.1000,23.8094,955.195
197.0000,21.089,955.112
196.9000,16.2972,954.945
196.8000,18.7476,955.021
196.7000,21.1454,954.954
196.6000,22.1894,954.994
196.5000,24.3326,954.971
196.4000,28.5423,955.059
196.3000,29.8219,954.939
196.2000,35.5913,955.082
196.1000,46.0353,955.386
196.0000,51.1982,955.51
195.9000,60.0709,955.688
195.8000,68.8586,955.968
195.7000,72.0711,955.848
195.6000,69.9395,955.565
195.5000,69.9672,955.431
195.4000,71.024,955.2
195.3000,77.1051,955.196
195.2000,82.0718,955.033
195.1000,83.1831,954.799
195.0000,81.2784,954.581
194.9000,79.0263,954.15
194.8000,68.5408,953.454
194.7000,52.9766,949.089
194.6000,43.5435,926.118
194.5000,32.3611,922.663
194.4000,25.3694,925.755
194.3000,13.9719,929.342
194.2000,-2.70731,932.829
194.1000,-19.5072,936.351
194.0000,-27.2871,940.264
193.9000,-34.6728,944.109
193.8000,-39.359,948.067
193.7000,-42.0951,952.06
193.6000,-45.7078,955.981
193.5000,-44.014,960.059
193.4000,-42.8972,964.044
193.3000,-40.2041,968.002
193.2000,-37.178,972.074
193.1000,-31.5929,975.955
193.0000,-25.0901,989.977
192.9000,-21.1471,1012.38
192.8000,-14.6829,1014.93
192.7000,-12.844,1014.37
192.6000,-10.2587,1013.37
192.5000,-2.76074,1012.4
192.4000,-2.09807,1011.16
192.3000,-4.76553,1009.74
192.2000,-5.06501,1008.34
192.1000,-3.38145,1006.94
192.0000,-0.986807,1005.54
191.9000,-0.601468,1003.99
191.8000,3.41376,1002.52
191.7000,3.3252,1000.98
191.6000,-0.803012,999.254
191.5000,-6.33172,997.518
191.4000,-8.47816,995.882
191.3000,-10.7183,994.372
191.2000,-16.8709,992.76
191.1000,-16.6641,991.287
191.0000,-11.9121,990.091
190.9000,-15.3953,988.708
190.8000,-18.1881,987.387
190.7000,-19.6862,986.033
190.6000,-18.5273,984.878
190.5000,-17.3892,983.668
190.4000,-17.4383,982.51
190.3000,-13.7625,981.449
190.2000,-12.1945,980.345
190.1000,-15.6451,979.124
190.0000,-19.6961,977.865

##### Extended Information
[Comments]
Sample name,DL121 15C dark melt post scan 2
Comment
User,JM
Division
Company,UT Southwestern Medical Center at Dallas

[Detailed Information]
Creation date,5/1/2023 5:53 PM

Data array type,Linear data array * 2
Horizontal axis,Wavelength [nm]
Vertical axis(1),CD [mdeg]
Vertical axis(2),HT [V]
Start,250 nm
End,190 nm
Data interval,0.1 nm
Data points,601     

[Measurement Information]
Instrument name,Jasco CD
Model name,J-815
Serial No.,B064061168

Accessory,CDF-426S
Accessory S/N,A00861183
  Temperature,15.00 C
  Control sonsor,Holder
  Monitor sensor,Holder
  Start Mode,Keep target temperature +/-0.10 deg C while 5 seconds
  Cell length,10 mm

Measurement date,5/1/2023 5:53 PM

Photometric mode,CD, HT
Measure range,250 - 190 nm
Data pitch,0.1 nm
Sensitivity,Standard
D.I.T.,1 sec
Bandwidth,1.00 nm
Start mode,Immediately
Scanning speed,100 nm/min
Baseline correction,None
Shutter control,Manual
CD detector,PMT
PMT voltage,Auto
No. of cycle,3/3

Concentration,0.7 (w/v)%
Solvent,50mM nap04 ph 6.5 100mM NaF

