TITLE,DL121_H124Q_lit
DATA TYPE,
ORIGIN,JASCO
OWNER,
DATE,24/04/12
TIME,14:14:21
SPECTROMETER/DATA SYSTEM,
LOCALE,1033
RESOLUTION,
DELTAX,-0.1
XUNITS,NANOMETERS
YUNITS,CD [mdeg]
Y2UNITS,HT [V]
FIRSTX,  250.0000
LASTX,  190.0000
NPOINTS,     601
FIRSTY,    -0.02969
MAXY,   100.74795
MINY,   -28.52506
XYDATA
250.0000,-0.0296906,255.297
249.9000,-0.0698425,255.325
249.8000,-0.0885864,255.366
249.7000,-0.0564758,255.42
249.6000,-0.0550262,255.457
249.5000,-0.107227,255.487
249.4000,-0.145844,255.526
249.3000,-0.150473,255.562
249.2000,-0.134415,255.598
249.1000,-0.123276,255.642
249.0000,-0.168832,255.676
248.9000,-0.273154,255.709
248.8000,-0.300583,255.748
248.7000,-0.320374,255.779
248.6000,-0.331876,255.802
248.5000,-0.322049,255.836
248.4000,-0.288934,255.863
248.3000,-0.311789,255.901
248.2000,-0.33313,255.945
248.1000,-0.306342,255.97
248.0000,-0.31619,255.983
247.9000,-0.361478,256.013
247.8000,-0.392471,256.055
247.7000,-0.41055,256.079
247.6000,-0.477576,256.098
247.5000,-0.515015,256.111
247.4000,-0.576761,256.136
247.3000,-0.644571,256.165
247.2000,-0.698599,256.214
247.1000,-0.71496,256.274
247.0000,-0.694836,256.318
246.9000,-0.657419,256.385
246.8000,-0.609509,256.455
246.7000,-0.602914,255.893
246.6000,-0.562976,253.506
246.5000,-0.485303,251.493
246.4000,-0.414203,251.522
246.3000,-0.4077,251.579
246.2000,-0.439014,251.642
246.1000,-0.461172,251.706
246.0000,-0.512106,251.762
245.9000,-0.574255,251.829
245.8000,-0.556943,254.183
245.7000,-0.620102,256.702
245.6000,-0.729498,257.256
245.5000,-0.75502,257.323
245.4000,-0.76246,257.384
245.3000,-0.798071,257.434
245.2000,-0.850888,257.484
245.1000,-0.874197,257.535
245.0000,-0.919275,257.584
244.9000,-1.04063,257.624
244.8000,-1.0549,257.68
244.7000,-1.11812,257.739
244.6000,-1.16075,257.802
244.5000,-1.21016,257.87
244.4000,-1.23065,257.943
244.3000,-1.28592,258.014
244.2000,-1.33161,258.081
244.1000,-1.28664,258.173
244.0000,-1.26187,258.263
243.9000,-1.25889,258.335
243.8000,-1.31162,258.404
243.7000,-1.34001,258.472
243.6000,-1.3735,258.529
243.5000,-1.41285,258.587
243.4000,-1.44415,258.663
243.3000,-1.44862,258.737
243.2000,-1.46768,258.801
243.1000,-1.5005,258.867
243.0000,-1.47371,258.948
242.9000,-1.49369,259.03
242.8000,-1.48459,259.121
242.7000,-1.54629,259.198
242.6000,-1.62039,259.267
242.5000,-1.6974,259.332
242.4000,-1.79181,259.416
242.3000,-1.8657,259.508
242.2000,-1.91591,259.596
242.1000,-1.94885,259.682
242.0000,-2.00227,259.766
241.9000,-2.06451,259.871
241.8000,-2.07452,259.982
241.7000,-2.11054,260.101
241.6000,-2.08867,260.212
241.5000,-2.10265,260.318
241.4000,-2.09981,260.429
241.3000,-2.13344,260.538
241.2000,-2.17143,260.649
241.1000,-2.2776,260.743
241.0000,-2.34574,260.836
240.9000,-2.35199,260.928
240.8000,-2.40722,261.023
240.7000,-2.4338,261.137
240.6000,-2.58737,261.237
240.5000,-2.72664,261.335
240.4000,-2.83452,261.446
240.3000,-2.84784,261.569
240.2000,-2.81648,261.694
240.1000,-2.84888,261.835
240.0000,-2.90834,261.975
239.9000,-2.9835,262.111
239.8000,-2.99685,262.238
239.7000,-3.04218,262.368
239.6000,-3.1502,262.51
239.5000,-3.26783,262.654
239.4000,-3.36657,262.804
239.3000,-3.41305,262.948
239.2000,-3.54259,263.1
239.1000,-3.63209,263.242
239.0000,-3.68579,263.402
238.9000,-3.76624,263.58
238.8000,-3.807,263.75
238.7000,-3.8201,263.912
238.6000,-3.90131,264.074
238.5000,-4.02432,264.25
238.4000,-4.16783,264.426
238.3000,-4.24221,264.611
238.2000,-4.33423,264.786
238.1000,-4.25742,262.303
238.0000,-4.06793,259.47
237.9000,-3.94071,258.844
237.8000,-3.90722,259.042
237.7000,-3.91538,259.245
237.6000,-3.89863,259.452
237.5000,-3.8977,259.641
237.4000,-3.97497,259.853
237.3000,-4.20074,261.73
237.2000,-4.48063,264.961
237.1000,-4.78394,266.975
237.0000,-4.98124,267.196
236.9000,-5.12658,267.411
236.8000,-5.25245,267.619
236.7000,-5.36401,267.834
236.6000,-5.42597,268.05
236.5000,-5.53686,268.258
236.4000,-5.69488,268.474
236.3000,-5.84743,268.717
236.2000,-6.0487,268.958
236.1000,-6.15086,269.198
236.0000,-6.31688,269.445
235.9000,-6.51411,269.698
235.8000,-6.69941,269.964
235.7000,-6.87968,270.226
235.6000,-6.92734,270.491
235.5000,-6.92721,270.76
235.4000,-6.92032,271.03
235.3000,-6.96404,271.304
235.2000,-7.0787,271.579
235.1000,-7.13019,271.857
235.0000,-7.21854,272.127
234.9000,-7.25314,272.418
234.8000,-7.29146,272.706
234.7000,-7.49323,272.994
234.6000,-7.69745,273.294
234.5000,-7.88097,273.576
234.4000,-7.92874,273.866
234.3000,-7.97909,274.162
234.2000,-8.05853,274.481
234.1000,-8.15927,274.795
234.0000,-8.32014,275.106
233.9000,-8.51093,275.418
233.8000,-8.62596,275.737
233.7000,-8.71968,276.067
233.6000,-8.86221,276.42
233.5000,-9.04448,276.765
233.4000,-9.1886,277.093
233.3000,-9.35615,277.424
233.2000,-9.49654,277.77
233.1000,-9.5127,278.124
233.0000,-9.59046,278.474
232.9000,-9.72359,278.83
232.8000,-9.84327,279.184
232.7000,-9.97789,279.536
232.6000,-10.1796,279.887
232.5000,-10.2892,280.23
232.4000,-10.3885,280.57
232.3000,-10.5366,280.912
232.2000,-10.6759,281.255
232.1000,-10.8497,281.59
232.0000,-11.0454,281.928
231.9000,-11.2283,282.268
231.8000,-11.2778,282.619
231.7000,-11.293,282.982
231.6000,-11.4176,283.36
231.5000,-11.5256,283.742
231.4000,-11.611,284.117
231.3000,-11.6271,284.504
231.2000,-11.5727,284.892
231.1000,-11.557,285.276
231.0000,-11.6523,285.658
230.9000,-11.855,286.046
230.8000,-12.0009,286.427
230.7000,-12.1384,286.788
230.6000,-12.3512,287.146
230.5000,-12.5814,287.502
230.4000,-12.8607,287.85
230.3000,-13.1041,288.191
230.2000,-13.2814,288.525
230.1000,-13.4392,288.851
230.0000,-13.6412,289.162
229.9000,-13.9003,289.457
229.8000,-14.1906,289.762
229.7000,-14.3609,290.062
229.6000,-14.3385,287.846
229.5000,-13.6769,282.952
229.4000,-12.791,279.847
229.3000,-12.4979,280.173
229.2000,-12.4474,280.534
229.1000,-12.4927,280.916
229.0000,-12.4679,281.319
228.9000,-12.5505,281.728
228.8000,-12.8515,282.618
228.7000,-13.7016,288.606
228.6000,-14.9258,293.879
228.5000,-15.9048,294.571
228.4000,-16.4282,294.982
228.3000,-16.8266,295.374
228.2000,-17.1747,295.761
228.1000,-17.4892,296.146
228.0000,-17.6613,296.548
227.9000,-17.8643,296.918
227.8000,-18.1357,297.295
227.7000,-18.3157,297.668
227.6000,-18.3864,298.017
227.5000,-18.5046,298.369
227.4000,-18.6656,298.722
227.3000,-18.8401,299.069
227.2000,-19.0276,299.405
227.1000,-19.2165,299.726
227.0000,-19.3903,300.046
226.9000,-19.5406,300.364
226.8000,-19.7376,300.703
226.7000,-19.8455,301.044
226.6000,-20.044,301.369
226.5000,-20.2229,301.697
226.4000,-20.4021,302.014
226.3000,-20.5377,302.342
226.2000,-20.7391,302.684
226.1000,-20.8906,303.034
226.0000,-21.09,303.371
225.9000,-21.2739,303.7
225.8000,-21.4004,304.038
225.7000,-21.4822,304.378
225.6000,-21.5879,304.736
225.5000,-21.6756,305.089
225.4000,-21.7731,305.425
225.3000,-21.8219,305.755
225.2000,-21.8705,306.103
225.1000,-21.9738,306.441
225.0000,-22.2008,306.779
224.9000,-22.4434,307.119
224.8000,-22.712,307.436
224.7000,-23.0015,307.747
224.6000,-23.2484,308.069
224.5000,-23.5043,308.395
224.4000,-23.7407,308.708
224.3000,-24.0318,309.007
224.2000,-24.1287,309.318
224.1000,-24.3216,309.631
224.0000,-24.33,309.961
223.9000,-24.3018,310.289
223.8000,-24.4564,310.608
223.7000,-24.5138,310.93
223.6000,-24.7312,311.25
223.5000,-24.8632,311.572
223.4000,-25.0208,311.909
223.3000,-25.086,312.225
223.2000,-25.2354,312.536
223.1000,-25.4643,312.855
223.0000,-25.5883,313.186
222.9000,-25.6441,313.502
222.8000,-25.7236,313.816
222.7000,-25.7911,314.148
222.6000,-25.8981,314.473
222.5000,-26.0861,314.802
222.4000,-26.116,315.144
222.3000,-26.1903,315.474
222.2000,-26.3265,315.793
222.1000,-26.5483,316.126
222.0000,-26.6909,316.464
221.9000,-26.7946,316.799
221.8000,-26.7937,317.145
221.7000,-26.7993,317.489
221.6000,-26.9046,317.827
221.5000,-27.0691,318.175
221.4000,-27.0734,318.522
221.3000,-27.0314,318.863
221.2000,-27.1265,319.204
221.1000,-27.2035,319.376
221.0000,-26.186,310.365
220.9000,-24.159,302.779
220.8000,-22.7121,302.388
220.7000,-22.2568,302.748
220.6000,-22.1071,303.111
220.5000,-22.1758,303.468
220.4000,-22.1075,303.829
220.3000,-22.1742,304.19
220.2000,-22.7186,311.298
220.1000,-24.695,319.732
220.0000,-26.5756,323.426
219.9000,-27.3102,323.751
219.8000,-27.4815,324.072
219.7000,-27.511,324.415
219.6000,-27.5429,324.756
219.5000,-27.5345,325.093
219.4000,-27.6347,325.437
219.3000,-27.7349,325.779
219.2000,-27.8478,326.129
219.1000,-27.814,326.488
219.0000,-27.7933,326.842
218.9000,-27.7297,327.19
218.8000,-27.6881,327.551
218.7000,-27.7018,327.905
218.6000,-27.7497,328.248
218.5000,-27.6227,328.606
218.4000,-27.5161,328.971
218.3000,-27.6529,329.32
218.2000,-27.8162,329.676
218.1000,-27.8719,330.041
218.0000,-28.133,330.392
217.9000,-28.2671,330.745
217.8000,-28.2871,331.103
217.7000,-28.3334,331.471
217.6000,-28.4512,331.823
217.5000,-28.4341,332.182
217.4000,-28.4704,332.535
217.3000,-28.5251,332.885
217.2000,-28.4571,333.252
217.1000,-28.3656,333.628
217.0000,-28.3139,334
216.9000,-28.4057,334.373
216.8000,-28.3794,334.755
216.7000,-28.2002,335.136
216.6000,-27.9909,335.537
216.5000,-27.8862,335.936
216.4000,-27.7022,336.335
216.3000,-27.5365,336.73
216.2000,-27.3584,337.136
216.1000,-26.8919,337.563
216.0000,-26.6381,337.984
215.9000,-26.4578,338.403
215.8000,-26.3274,338.832
215.7000,-26.2824,339.262
215.6000,-26.347,339.704
215.5000,-26.4632,340.146
215.4000,-26.5691,340.591
215.3000,-26.8008,341.021
215.2000,-26.874,341.455
215.1000,-26.9381,341.903
215.0000,-27.0743,342.335
214.9000,-27.2967,342.758
214.8000,-27.3549,343.199
214.7000,-27.3343,343.652
214.6000,-27.2077,344.107
214.5000,-27.142,344.572
214.4000,-27.0714,345.039
214.3000,-27.1288,345.501
214.2000,-27.0111,345.99
214.1000,-26.7629,346.509
214.0000,-26.5536,347.04
213.9000,-26.3173,347.558
213.8000,-26.2485,348.092
213.7000,-26.1305,348.617
213.6000,-26.0605,349.157
213.5000,-26.1622,349.716
213.4000,-26.1301,350.296
213.3000,-26.0086,350.878
213.2000,-26.0236,351.444
213.1000,-25.9217,352.041
213.0000,-25.9853,352.624
212.9000,-25.9347,353.248
212.8000,-25.8226,353.865
212.7000,-25.6769,354.483
212.6000,-25.491,355.108
212.5000,-25.2214,345.71
212.4000,-23.2787,329.766
212.3000,-21.1091,324.406
212.2000,-20.0902,325.114
212.1000,-19.565,325.848
212.0000,-19.3891,326.559
211.9000,-19.4022,327.276
211.8000,-19.4254,328.006
211.7000,-19.6041,331.578
211.6000,-21.3571,351.975
211.5000,-23.8972,362.639
211.4000,-25.1844,363.57
211.3000,-25.5379,364.276
211.2000,-25.705,365.005
211.1000,-25.5604,365.762
211.0000,-25.5563,366.518
210.9000,-25.8403,367.27
210.8000,-25.5888,368.057
210.7000,-25.4193,368.86
210.6000,-25.4478,369.656
210.5000,-25.4281,370.447
210.4000,-25.1953,371.251
210.3000,-24.9918,372.092
210.2000,-24.8362,372.94
210.1000,-24.5343,373.819
210.0000,-24.2438,374.71
209.9000,-24.3499,375.6
209.8000,-24.1776,376.502
209.7000,-24.3057,377.412
209.6000,-24.7351,378.36
209.5000,-25.0821,379.317
209.4000,-25.1296,380.302
209.3000,-25.1968,381.289
209.2000,-25.2234,382.294
209.1000,-25.2958,383.317
209.0000,-25.4355,384.356
208.9000,-25.4766,385.413
208.8000,-25.6395,386.484
208.7000,-25.5245,387.588
208.6000,-25.314,388.722
208.5000,-24.9641,389.883
208.4000,-24.721,391.062
208.3000,-24.6112,392.252
208.2000,-24.8248,393.455
208.1000,-24.9881,394.698
208.0000,-24.6588,395.982
207.9000,-24.4595,397.259
207.8000,-24.7202,398.543
207.7000,-25.3169,399.822
207.6000,-25.7153,401.128
207.5000,-25.5133,402.468
207.4000,-24.7914,403.854
207.3000,-24.2455,405.256
207.2000,-23.7924,406.651
207.1000,-23.4805,408.071
207.0000,-23.2234,409.515
206.9000,-22.5489,410.996
206.8000,-22.0756,412.487
206.7000,-22.0247,414.002
206.6000,-21.6272,415.537
206.5000,-21.2197,417.078
206.4000,-21.1871,418.671
206.3000,-21.0972,420.288
206.2000,-21.0447,421.891
206.1000,-21.2298,423.519
206.0000,-20.7942,425.22
205.9000,-20.3811,426.949
205.8000,-20.2711,428.699
205.7000,-20.2888,430.471
205.6000,-19.8071,432.265
205.5000,-19.3584,434.081
205.4000,-18.6773,435.964
205.3000,-17.8821,437.912
205.2000,-17.4063,439.843
205.1000,-16.8344,441.786
205.0000,-16.6176,443.735
204.9000,-16.096,445.746
204.8000,-15.6653,447.801
204.7000,-15.4173,449.879
204.6000,-15.0752,451.976
204.5000,-15.0802,454.044
204.4000,-15.3099,456.141
204.3000,-15.4316,458.306
204.2000,-15.1052,460.523
204.1000,-14.7837,462.754
204.0000,-14.0646,462.503
203.9000,-12.6053,428.574
203.8000,-10.9081,378.897
203.7000,-9.25485,368.089
203.6000,-7.92351,370.477
203.5000,-6.78069,372.962
203.4000,-5.96808,375.463
203.3000,-5.01046,378.016
203.2000,-4.60786,380.604
203.1000,-5.17389,406.897
203.0000,-5.57014,458.495
202.9000,-5.44048,492.1
202.8000,-4.91515,495.186
202.7000,-4.17567,497.894
202.6000,-3.66469,500.622
202.5000,-3.24331,503.376
202.4000,-2.2524,506.185
202.3000,-1.52325,509.031
202.2000,-1.10379,511.921
202.1000,-1.28761,514.848
202.0000,-1.21889,517.83
201.9000,-1.58847,520.827
201.8000,-1.56384,523.847
201.7000,-1.44857,526.895
201.6000,-1.79883,529.968
201.5000,-1.19596,533.098
201.4000,-1.18284,536.235
201.3000,0.260648,539.445
201.2000,1.72211,542.648
201.1000,2.51057,545.869
201.0000,3.67016,549.135
200.9000,4.54676,552.442
200.8000,4.13696,555.715
200.7000,3.49639,558.974
200.6000,3.50538,562.275
200.5000,2.05837,565.555
200.4000,0.561673,568.878
200.3000,-0.569885,572.237
200.2000,-0.0888245,575.653
200.1000,-0.37468,579.073
200.0000,0.0609619,582.539
199.9000,0.386896,586.057
199.8000,-0.338684,589.571
199.7000,-0.631989,593.12
199.6000,-0.0532684,596.72
199.5000,0.494681,600.347
199.4000,3.24382,604.106
199.3000,6.15082,607.896
199.2000,9.48609,611.74
199.1000,12.9876,615.59
199.0000,13.5498,619.379
198.9000,15.0696,623.25
198.8000,19.3387,627.224
198.7000,22.8871,631.231
198.6000,22.8046,635.172
198.5000,21.5781,639.097
198.4000,19.9479,643.01
198.3000,21.3869,647.059
198.2000,21.5515,651.107
198.1000,24.4624,655.254
198.0000,24.7192,659.333
197.9000,22.6992,663.341
197.8000,20.9574,667.354
197.7000,22.494,671.492
197.6000,22.4697,675.619
197.5000,18.693,679.598
197.4000,20.9122,683.8
197.3000,23.1536,688.011
197.2000,24.0982,692.178
197.1000,25.6115,696.386
197.0000,30.449,700.673
196.9000,32.9266,704.844
196.8000,34.5949,708.984
196.7000,34.4235,713.106
196.6000,31.286,717.101
196.5000,29.6256,721.089
196.4000,30.7397,725.14
196.3000,33.1814,729.205
196.2000,33.6925,733.171
196.1000,27.5952,736.923
196.0000,28.6561,740.868
195.9000,31.2015,744.784
195.8000,34.8824,748.706
195.7000,39.4416,752.586
195.6000,33.7022,756.123
195.5000,31.1275,759.687
195.4000,31.3514,726.869
195.3000,31.5946,650.89
195.2000,28.7312,564.366
195.1000,25.22,531.778
195.0000,22.2048,536.998
194.9000,20.679,541.979
194.8000,23.8843,546.249
194.7000,25.7437,550.191
194.6000,21.2783,570.065
194.5000,17.2822,645.289
194.4000,16.7561,736.975
194.3000,14.8838,805.648
194.2000,14.3011,809.924
194.1000,14.0119,811.651
194.0000,15.0539,814.44
193.9000,9.7787,817.34
193.8000,9.62049,820.377
193.7000,5.98203,823.176
193.6000,0.908829,825.788
193.5000,15.5141,829.009
193.4000,19.7849,831.874
193.3000,25.2071,834.684
193.2000,25.0786,837.225
193.1000,26.9419,839.828
193.0000,28.0626,842.381
192.9000,28.435,844.754
192.8000,35.3003,847.313
192.7000,35.4219,849.521
192.6000,40.5127,851.666
192.5000,48.8117,853.797
192.4000,64.8669,856.105
192.3000,74.2654,857.975
192.2000,83.5154,859.697
192.1000,84.2788,861.018
192.0000,87.8686,862.245
191.9000,100.748,863.587
191.8000,93.8663,864.273
191.7000,82.8117,864.829
191.6000,65.2895,865.082
191.5000,51.3208,865.52
191.4000,48.4853,866.274
191.3000,59.5847,867.481
191.2000,76.8597,868.916
191.1000,65.7868,869.654
191.0000,51.5714,870.237
190.9000,47.0878,871.026
190.8000,44.3767,871.858
190.7000,35.9307,872.46
190.6000,36.2127,873.188
190.5000,26.5191,873.573
190.4000,22.2063,874.038
190.3000,23.8974,874.56
190.2000,33.3021,875.242
190.1000,50.4747,876.149
190.0000,42.2566,876.202

##### Extended Information
[Comments]
Sample name,DL121_H124Q_lit
Comment
User
Division
Company,UT Southwestern Medical Center at Dallas

[Detailed Information]
Creation date,4/12/2024 2:14 PM

Data array type,Linear data array * 2
Horizontal axis,Wavelength [nm]
Vertical axis(1),CD [mdeg]
Vertical axis(2),HT [V]
Start,250 nm
End,190 nm
Data interval,0.1 nm
Data points,601     

[Measurement Information]
Instrument name,Jasco CD
Model name,J-815
Serial No.,B064061168

Accessory,CDF-426S
Accessory S/N,A00861183
  Temperature,17.50 C
  Control sonsor,Holder
  Monitor sensor,Holder
  Start Mode,Keep target temperature +/-0.10 deg C while 5 seconds
  Cell length,10 mm

Measurement date,4/12/2024 2:14 PM

Photometric mode,CD, HT
Measure range,250 - 190 nm
Data pitch,0.1 nm
Sensitivity,Standard
D.I.T.,1 sec
Bandwidth,1.00 nm
Start mode,Immediately
Scanning speed,50 nm/min
Baseline correction,None
Shutter control,Manual
CD detector,PMT
PMT voltage,Auto
No. of cycle,1/3

Concentration,0.452 (w/v)%
Solvent,50mm sodium phosphate ph 6.5 100mM naf12.5mM IV

