TITLE,DL121_D127W_lit
DATA TYPE,
ORIGIN,JASCO
OWNER,
DATE,24/04/11
TIME,09:24:05
SPECTROMETER/DATA SYSTEM,
LOCALE,1033
RESOLUTION,
DELTAX,-0.1
XUNITS,NANOMETERS
YUNITS,CD [mdeg]
Y2UNITS,HT [V]
FIRSTX,  250.0000
LASTX,  190.0000
NPOINTS,     601
FIRSTY,    -0.54499
MAXY,    76.21684
MINY,   -75.54794
XYDATA
250.0000,-0.544992,254.393
249.9000,-0.546951,254.428
249.8000,-0.472638,254.461
249.7000,-0.425375,254.502
249.6000,-0.401022,254.537
249.5000,-0.365491,254.152
249.4000,-0.285959,251.981
249.3000,-0.200284,250.015
249.2000,-0.152567,249.991
249.1000,-0.151315,250.019
249.0000,-0.187204,250.056
248.9000,-0.209314,250.099
248.8000,-0.18884,250.135
248.7000,-0.154694,250.178
248.6000,-0.189908,252.108
248.5000,-0.322461,254.348
248.4000,-0.45484,254.96
248.3000,-0.560666,254.994
248.2000,-0.616739,255.03
248.1000,-0.712231,255.054
248.0000,-0.783582,255.068
247.9000,-0.80903,255.091
247.8000,-0.956299,255.108
247.7000,-0.995837,255.128
247.6000,-0.963306,255.159
247.5000,-0.856836,255.194
247.4000,-0.829239,255.23
247.3000,-0.810736,255.261
247.2000,-0.802933,255.311
247.1000,-0.852032,255.353
247.0000,-0.824005,255.397
246.9000,-0.779059,255.459
246.8000,-0.685223,255.533
246.7000,-0.726785,255.602
246.6000,-0.724384,255.665
246.5000,-0.654666,255.737
246.4000,-0.673865,255.802
246.3000,-0.694644,255.88
246.2000,-0.737274,255.954
246.1000,-0.77269,256.025
246.0000,-0.884991,256.074
245.9000,-0.941052,256.119
245.8000,-0.94386,256.172
245.7000,-1.04193,256.233
245.6000,-1.06884,256.286
245.5000,-0.971356,256.339
245.4000,-0.919614,256.391
245.3000,-0.926666,256.437
245.2000,-0.916379,256.499
245.1000,-0.949557,256.557
245.0000,-1.04354,256.614
244.9000,-1.12758,256.665
244.8000,-1.16674,256.725
244.7000,-1.31703,256.791
244.6000,-1.40502,256.87
244.5000,-1.48761,256.945
244.4000,-1.51639,257.023
244.3000,-1.50334,257.102
244.2000,-1.48289,257.176
244.1000,-1.51594,257.241
244.0000,-1.57011,257.308
243.9000,-1.5489,257.376
243.8000,-1.54717,257.443
243.7000,-1.52414,257.517
243.6000,-1.5354,257.587
243.5000,-1.61175,257.649
243.4000,-1.72534,257.732
243.3000,-1.77359,257.811
243.2000,-1.79944,257.893
243.1000,-1.91632,257.986
243.0000,-2.04855,258.064
242.9000,-2.17638,258.141
242.8000,-2.26088,258.215
242.7000,-2.32382,258.306
242.6000,-2.36579,258.389
242.5000,-2.35474,258.477
242.4000,-2.38957,258.567
242.3000,-2.40578,258.655
242.2000,-2.4496,258.747
242.1000,-2.45181,258.855
242.0000,-2.5041,258.963
241.9000,-2.52513,259.061
241.8000,-2.6157,259.163
241.7000,-2.68556,259.275
241.6000,-2.80521,259.386
241.5000,-2.82716,259.495
241.4000,-2.87136,259.609
241.3000,-2.90625,259.718
241.2000,-2.97328,259.826
241.1000,-3.05899,259.937
241.0000,-3.08806,260.05
240.9000,-3.05117,258.132
240.8000,-2.91749,255.697
240.7000,-2.80173,254.963
240.6000,-2.83016,255.084
240.5000,-2.87448,255.223
240.4000,-2.95475,255.355
240.3000,-2.99169,255.506
240.2000,-3.09524,255.664
240.1000,-3.2326,257.013
240.0000,-3.48417,259.729
239.9000,-3.81597,261.59
239.8000,-3.96665,261.765
239.7000,-4.12256,261.922
239.6000,-4.22135,262.081
239.5000,-4.25515,262.238
239.4000,-4.35058,262.398
239.3000,-4.43024,262.554
239.2000,-4.50135,262.711
239.1000,-4.58427,262.886
239.0000,-4.74881,263.057
238.9000,-4.87534,263.226
238.8000,-5.02199,263.403
238.7000,-5.10775,263.594
238.6000,-5.1595,263.779
238.5000,-5.16021,263.965
238.4000,-5.22451,264.159
238.3000,-5.30704,264.349
238.2000,-5.27928,264.542
238.1000,-5.23318,264.751
238.0000,-5.27752,264.97
237.9000,-5.41831,265.183
237.8000,-5.61322,265.388
237.7000,-5.81887,265.606
237.6000,-6.01559,265.827
237.5000,-6.16263,266.051
237.4000,-6.3263,266.283
237.3000,-6.55855,266.513
237.2000,-6.67986,266.74
237.1000,-6.70405,266.963
237.0000,-6.73799,267.222
236.9000,-6.87045,267.468
236.8000,-7.03424,267.708
236.7000,-7.18295,267.966
236.6000,-7.36452,268.217
236.5000,-7.52793,268.478
236.4000,-7.68605,268.756
236.3000,-7.96422,269.032
236.2000,-8.2249,269.306
236.1000,-8.42065,269.576
236.0000,-8.53012,269.879
235.9000,-8.6456,270.179
235.8000,-8.77902,270.478
235.7000,-8.86043,270.786
235.6000,-8.96743,271.091
235.5000,-9.07848,271.402
235.4000,-9.21139,271.714
235.3000,-9.28627,272.038
235.2000,-9.48289,272.361
235.1000,-9.71585,272.675
235.0000,-9.88936,273.009
234.9000,-10.0109,273.337
234.8000,-10.1021,273.68
234.7000,-10.2362,274.026
234.6000,-10.3431,274.373
234.5000,-10.482,274.72
234.4000,-10.5513,275.075
234.3000,-10.6743,275.434
234.2000,-10.8298,275.805
234.1000,-10.9681,276.187
234.0000,-11.1071,276.565
233.9000,-11.2249,276.931
233.8000,-11.3215,277.31
233.7000,-11.4848,277.697
233.6000,-11.702,278.098
233.5000,-11.8179,278.493
233.4000,-11.8417,278.892
233.3000,-12.0007,279.277
233.2000,-12.2285,279.678
233.1000,-12.4773,280.082
233.0000,-12.7135,280.49
232.9000,-12.8964,280.903
232.8000,-13.031,281.299
232.7000,-13.2203,281.712
232.6000,-13.4366,282.134
232.5000,-13.6876,282.551
232.4000,-13.7438,281.161
232.3000,-13.1979,277.187
232.2000,-12.4305,274.445
232.1000,-12.1868,274.839
232.0000,-12.2902,275.272
231.9000,-12.3971,275.718
231.8000,-12.5354,276.158
231.7000,-12.7501,276.599
231.6000,-12.9529,277.201
231.5000,-13.65,282.282
231.4000,-14.8098,286.978
231.3000,-15.5716,287.815
231.2000,-15.9259,288.277
231.1000,-16.2483,288.726
231.0000,-16.5086,289.169
230.9000,-16.7122,289.616
230.8000,-16.8306,290.064
230.7000,-17.065,290.509
230.6000,-17.2197,290.954
230.5000,-17.3796,291.396
230.4000,-17.6465,291.827
230.3000,-17.8593,292.265
230.2000,-18.1373,292.684
230.1000,-18.4238,293.087
230.0000,-18.68,293.501
229.9000,-18.9159,293.9
229.8000,-19.2117,294.29
229.7000,-19.5441,294.67
229.6000,-19.7915,295.06
229.5000,-19.969,295.459
229.4000,-20.2218,295.864
229.3000,-20.4236,296.305
229.2000,-20.7313,296.744
229.1000,-20.966,297.19
229.0000,-21.2081,297.661
228.9000,-21.4774,298.152
228.8000,-21.75,298.642
228.7000,-22.0071,299.134
228.6000,-22.1691,299.626
228.5000,-22.381,300.112
228.4000,-22.5109,300.596
228.3000,-22.6791,301.086
228.2000,-22.8387,301.57
228.1000,-23.0124,302.047
228.0000,-23.2,302.498
227.9000,-23.4186,302.94
227.8000,-23.6227,303.374
227.7000,-23.8506,303.802
227.6000,-24.1362,304.226
227.5000,-24.5876,304.633
227.4000,-24.8894,305.02
227.3000,-25.1631,305.409
227.2000,-25.3946,305.82
227.1000,-25.6606,306.239
227.0000,-25.9488,306.645
226.9000,-26.0963,307.056
226.8000,-26.2517,307.45
226.7000,-26.2932,307.844
226.6000,-26.457,308.256
226.5000,-26.7545,308.671
226.4000,-27.0266,309.05
226.3000,-27.2431,309.424
226.2000,-27.5179,309.819
226.1000,-27.8569,310.203
226.0000,-28.1233,310.605
225.9000,-28.4599,311.011
225.8000,-28.7536,311.397
225.7000,-28.9691,311.774
225.6000,-29.2487,312.166
225.5000,-29.4389,312.559
225.4000,-29.6362,312.938
225.3000,-29.8275,313.331
225.2000,-30.1653,313.715
225.1000,-30.5643,314.083
225.0000,-30.7889,314.465
224.9000,-30.9701,314.849
224.8000,-31.0806,315.238
224.7000,-31.3299,315.612
224.6000,-31.5192,315.993
224.5000,-31.7058,316.388
224.4000,-31.8428,316.763
224.3000,-31.7622,317.146
224.2000,-31.7964,317.533
224.1000,-31.9669,317.92
224.0000,-32.1753,318.292
223.9000,-32.3478,318.651
223.8000,-31.4238,310.61
223.7000,-29.0604,303.355
223.6000,-27.3149,302.554
223.5000,-26.8096,302.973
223.4000,-26.7907,303.379
223.3000,-26.9433,303.77
223.2000,-27.062,304.157
223.1000,-27.1822,304.544
223.0000,-27.8855,310.685
222.9000,-30.2975,318.857
222.8000,-32.8029,322.963
222.7000,-33.9229,323.323
222.6000,-34.5448,323.684
222.5000,-34.8933,324.059
222.4000,-35.2218,324.426
222.3000,-35.5155,324.803
222.2000,-35.6988,325.171
222.1000,-35.8246,325.535
222.0000,-35.9559,325.92
221.9000,-36.0117,326.291
221.8000,-36.0093,326.66
221.7000,-35.9402,327.034
221.6000,-35.9393,327.424
221.5000,-35.9794,327.803
221.4000,-35.9071,328.186
221.3000,-35.8537,328.58
221.2000,-35.963,328.948
221.1000,-36.1435,329.321
221.0000,-36.333,329.706
220.9000,-36.3391,330.086
220.8000,-36.3639,330.449
220.7000,-36.2897,330.819
220.6000,-36.3697,331.207
220.5000,-36.337,331.594
220.4000,-36.3598,331.969
220.3000,-36.2595,332.355
220.2000,-36.1628,332.742
220.1000,-36.1714,333.126
220.0000,-36.0813,333.522
219.9000,-36.1141,333.913
219.8000,-36.0241,334.306
219.7000,-36.0783,334.693
219.6000,-36.1843,335.075
219.5000,-36.3674,335.452
219.4000,-36.4981,335.839
219.3000,-36.637,336.206
219.2000,-36.7248,336.595
219.1000,-36.8259,336.968
219.0000,-36.9605,337.331
218.9000,-37.0764,337.69
218.8000,-37.1424,338.07
218.7000,-37.0692,338.447
218.6000,-36.916,338.836
218.5000,-36.8196,339.222
218.4000,-36.8172,339.609
218.3000,-36.8343,340.001
218.2000,-36.8022,340.411
218.1000,-36.7463,340.809
218.0000,-36.7514,341.209
217.9000,-36.7104,341.606
217.8000,-36.864,341.983
217.7000,-36.9477,342.364
217.6000,-36.9585,342.741
217.5000,-36.9475,343.126
217.4000,-36.8055,343.51
217.3000,-36.7379,343.913
217.2000,-36.5497,344.329
217.1000,-36.2344,344.736
217.0000,-36.0285,345.154
216.9000,-35.853,345.581
216.8000,-35.6729,346.016
216.7000,-35.5427,346.43
216.6000,-35.6068,346.85
216.5000,-35.4624,347.284
216.4000,-35.2735,347.703
216.3000,-35.4712,348.127
216.2000,-35.6785,348.566
216.1000,-35.652,349.01
216.0000,-35.5704,349.458
215.9000,-35.4908,349.921
215.8000,-35.2544,350.397
215.7000,-34.9575,350.892
215.6000,-35.0124,351.368
215.5000,-34.7824,351.86
215.4000,-34.4959,352.355
215.3000,-33.3829,344.725
215.2000,-30.5583,330.408
215.1000,-27.3697,324.514
215.0000,-25.937,325.066
214.9000,-25.3106,325.627
214.8000,-25.0917,326.183
214.7000,-24.9807,326.751
214.6000,-24.9858,327.342
214.5000,-25.2362,329.744
214.4000,-27.6986,347.625
214.3000,-30.9909,358.178
214.2000,-33.0198,359.025
214.1000,-33.8418,359.575
214.0000,-34.2994,360.135
213.9000,-34.374,360.72
213.8000,-34.2539,361.308
213.7000,-34.1538,361.9
213.6000,-33.8938,362.513
213.5000,-33.516,363.154
213.4000,-33.0815,363.812
213.3000,-32.8761,364.461
213.2000,-32.7994,365.121
213.1000,-32.4471,365.809
213.0000,-32.4561,366.476
212.9000,-32.6379,367.156
212.8000,-32.792,367.845
212.7000,-33.1515,368.535
212.6000,-33.4876,369.236
212.5000,-33.7408,369.949
212.4000,-33.9648,370.676
212.3000,-34.0598,371.41
212.2000,-34.0651,372.15
212.1000,-34.0167,372.897
212.0000,-33.7317,373.676
211.9000,-33.5003,374.477
211.8000,-33.4626,375.267
211.7000,-33.3118,376.079
211.6000,-33.1583,376.894
211.5000,-33.1263,377.714
211.4000,-33.1921,378.542
211.3000,-33.0296,379.411
211.2000,-32.7822,380.293
211.1000,-32.8052,381.172
211.0000,-32.6693,382.059
210.9000,-32.6116,382.944
210.8000,-32.6024,383.849
210.7000,-32.3753,384.793
210.6000,-32.2544,385.743
210.5000,-32.2624,386.693
210.4000,-32.3182,387.648
210.3000,-32.4031,388.603
210.2000,-32.259,389.589
210.1000,-31.9615,390.611
210.0000,-31.3878,391.666
209.9000,-31.0987,392.718
209.8000,-31.0997,393.758
209.7000,-30.9429,394.833
209.6000,-31.1687,395.927
209.5000,-31.3931,397.06
209.4000,-31.2618,398.23
209.3000,-31.4046,399.412
209.2000,-31.8734,400.618
209.1000,-32.151,401.834
209.0000,-32.2286,403.082
208.9000,-32.3679,404.344
208.8000,-32.298,405.623
208.7000,-32.045,406.912
208.6000,-32.1214,408.24
208.5000,-32.0127,409.588
208.4000,-31.8647,410.953
208.3000,-31.6772,412.33
208.2000,-31.5902,413.758
208.1000,-31.5222,415.203
208.0000,-31.3902,416.678
207.9000,-30.9854,418.191
207.8000,-30.7547,419.713
207.7000,-30.8078,421.228
207.6000,-31.0348,422.768
207.5000,-30.8942,424.351
207.4000,-30.6683,425.961
207.3000,-30.0325,427.621
207.2000,-29.375,429.301
207.1000,-28.8314,431.01
207.0000,-28.5388,432.739
206.9000,-27.902,434.488
206.8000,-26.9667,434.967
206.7000,-24.809,405.139
206.6000,-21.8747,360.781
206.5000,-19.4199,358.134
206.4000,-17.8909,360.09
206.3000,-17.4532,362.074
206.2000,-16.9208,364.066
206.1000,-15.9737,366.12
206.0000,-15.2672,368.206
205.9000,-15.7466,389.629
205.8000,-18.0263,436.609
205.7000,-20.2832,458.151
205.6000,-21.303,460.392
205.5000,-21.5793,462.525
205.4000,-21.5041,464.713
205.3000,-22.0304,466.918
205.2000,-22.5612,469.139
205.1000,-22.6713,471.43
205.0000,-21.8711,473.782
204.9000,-21.4233,476.155
204.8000,-20.8753,478.578
204.7000,-20.2601,481.073
204.6000,-19.5048,483.61
204.5000,-17.8902,486.215
204.4000,-15.8399,488.883
204.3000,-14.396,491.549
204.2000,-14.1618,494.211
204.1000,-13.8569,496.952
204.0000,-13.0923,499.72
203.9000,-12.6277,502.48
203.8000,-11.8873,505.294
203.7000,-11.802,508.113
203.6000,-11.5434,510.975
203.5000,-11.326,513.888
203.4000,-10.3052,516.865
203.3000,-9.7505,519.839
203.2000,-9.05982,522.837
203.1000,-8.71667,525.87
203.0000,-8.94103,528.936
202.9000,-8.60551,532.041
202.8000,-8.23843,535.184
202.7000,-8.18167,538.357
202.6000,-7.27357,541.594
202.5000,-5.58548,544.882
202.4000,-5.15047,548.185
202.3000,-4.52182,551.543
202.2000,-4.17372,554.923
202.1000,-4.21826,558.337
202.0000,-3.89915,561.842
201.9000,-3.44071,565.352
201.8000,-3.2642,568.899
201.7000,-3.05944,572.5
201.6000,-2.23133,576.167
201.5000,-1.2743,579.874
201.4000,-0.412747,583.63
201.3000,1.83049,587.466
201.2000,2.77191,591.284
201.1000,3.75319,595.169
201.0000,3.76141,599.045
200.9000,3.68795,602.967
200.8000,4.01125,606.943
200.7000,4.44546,610.953
200.6000,4.96866,615.018
200.5000,5.41411,619.117
200.4000,5.82023,623.251
200.3000,6.69619,627.43
200.2000,6.45234,631.623
200.1000,7.12014,635.862
200.0000,8.15272,640.136
199.9000,8.58161,644.451
199.8000,7.92769,648.765
199.7000,6.37516,653.076
199.6000,5.1039,657.444
199.5000,4.97718,661.874
199.4000,6.46609,666.404
199.3000,7.89347,670.942
199.2000,10.2222,675.548
199.1000,11.5369,680.143
199.0000,12.9944,684.76
198.9000,13.3032,689.338
198.8000,12.6467,693.889
198.7000,12.1967,698.447
198.6000,11.6842,703.032
198.5000,13.6905,707.714
198.4000,15.5265,712.417
198.3000,16.3357,717.084
198.2000,17.1414,691.872
198.1000,17.9347,622.197
198.0000,19.3813,541.334
197.9000,19.7163,510.272
197.8000,18.9228,515.903
197.7000,18.3103,521.445
197.6000,15.4043,526.509
197.5000,14.4647,531.484
197.4000,11.2147,548.159
197.3000,12.6534,618.9
197.2000,11.4243,707.199
197.1000,11.2845,775.386
197.0000,14.6134,781.84
196.9000,19.7073,785.954
196.8000,19.0556,790.455
196.7000,15.3769,795.014
196.6000,18.6924,799.839
196.5000,12.1985,804.251
196.4000,9.27176,808.719
196.3000,10.1595,813.217
196.2000,8.45565,817.581
196.1000,-0.66727,821.665
196.0000,-0.554974,825.911
195.9000,2.04412,830.171
195.8000,9.6262,834.446
195.7000,13.7979,838.502
195.6000,22.5895,842.569
195.5000,30.4216,846.419
195.4000,33.3217,849.947
195.3000,42.6475,853.456
195.2000,41.6476,856.407
195.1000,39.5601,859.077
195.0000,29.9316,861.286
194.9000,36.6272,863.795
194.8000,43.0231,866.057
194.7000,36.157,867.784
194.6000,38.175,869.641
194.5000,39.5111,871.389
194.4000,40.6287,873.052
194.3000,46.7134,874.873
194.2000,61.7107,876.948
194.1000,75.2654,879.01
194.0000,76.2168,880.672
193.9000,70.3123,882.115
193.8000,66.5813,883.518
193.7000,64.4231,884.863
193.6000,58.1666,885.979
193.5000,57.7349,887.158
193.4000,43.3287,887.765
193.3000,24.9853,888.08
193.2000,10.3364,888.478
193.1000,19.9874,889.463
193.0000,31.3871,890.465
192.9000,20.991,890.653
192.8000,19.8662,890.915
192.7000,15.3078,891.093
192.6000,7.43352,890.948
192.5000,-1.98187,890.652
192.4000,7.73977,890.779
192.3000,9.45582,890.579
192.2000,-8.66773,889.61
192.1000,-16.7686,888.861
192.0000,-10.2408,888.528
191.9000,-8.85992,888.02
191.8000,3.64134,887.88
191.7000,33.7482,888.206
191.6000,41.5055,887.843
191.5000,31.4563,886.896
191.4000,14.264,885.706
191.3000,26.6468,885.346
191.2000,31.5763,884.775
191.1000,24.9112,883.719
191.0000,27.4899,882.78
190.9000,4.22644,881.121
190.8000,-13.851,879.441
190.7000,-14.031,878.224
190.6000,-2.32164,877.238
190.5000,-15.0723,875.51
190.4000,-34.7679,873.459
190.3000,-51.3027,871.36
190.2000,-62.0582,869.416
190.1000,-66.8529,867.56
190.0000,-75.5479,865.567

##### Extended Information
[Comments]
Sample name,DL121_D127W_lit
Comment
User
Division
Company,UT Southwestern Medical Center at Dallas

[Detailed Information]
Creation date,4/11/2024 9:24 AM

Data array type,Linear data array * 2
Horizontal axis,Wavelength [nm]
Vertical axis(1),CD [mdeg]
Vertical axis(2),HT [V]
Start,250 nm
End,190 nm
Data interval,0.1 nm
Data points,601     

[Measurement Information]
Instrument name,Jasco CD
Model name,J-815
Serial No.,B064061168

Accessory,CDF-426S
Accessory S/N,A00861183
  Temperature,17.48 C
  Control sonsor,Holder
  Monitor sensor,Holder
  Start Mode,Start immediately
  Cell length,10 mm

Measurement date,4/11/2024 9:24 AM

Photometric mode,CD, HT
Measure range,250 - 190 nm
Data pitch,0.1 nm
Sensitivity,Standard
D.I.T.,1 sec
Bandwidth,1.00 nm
Start mode,Immediately
Scanning speed,50 nm/min
Baseline correction,None
Shutter control,Manual
CD detector,PMT
PMT voltage,Auto
No. of cycle,3/3

Concentration,0.606 (w/v)%
Solvent,50mm sodium phosphate ph 6.5 100mM naf12.5mM IV

